#wavelength 0.84
#field 0 0 1
#    ttheta      IntUP     sIntUP    IntDOWN   sIntDOWN         un         un
    4.60000  626.97        93.64     413.31            90.64    216.562    130.329
    4.80000  708.72        91.83     749.57            92.55    -40.966    130.380
    5.00000  718.07        89.38     575.64            87.29    141.148    124.964
    5.20000  679.62        86.86     595.28            85.63     83.799    121.992
    5.40000  683.03        84.66     580.64            83.17    102.330    118.678
    5.60000  727.63        83.54     705.12            83.16     22.620    117.903
    5.80000  709.16        83.16     653.77            82.39     57.471    117.060
    6.00000  765.50        81.54     654.01            79.82    113.164    114.123
    6.20000  813.40        80.76     865.23            81.57    -51.273    114.787
    6.40000  613.40        78.81     727.05            80.57   -113.448    112.723
    6.60000  530.91        76.38     458.89            75.37     73.496    107.304
    6.80000  892.05        79.61     610.54            75.48    282.725    109.717
    7.00000  932.68        79.59     733.16            76.68    198.945    110.526
    7.20000  1611.08       89.13      863.58           79.10    744.072    119.264
    7.40000  3505.62      109.22      1711.89          88.84   1794.561    140.791
    7.60000  5658.21      131.62      2033.16          95.30   3624.571    162.513
    7.80000  5454.61      124.07      2091.49          91.29   3363.506    154.040
    8.00000  3593.33       88.07      1460.03          68.68   2134.347    111.684
    8.20000  1720.63       70.73      906.50           61.95    813.228     94.026
    8.40000  974.33        61.94     877.03            60.86     97.720     86.841
    8.60000  1670.12       68.42      1546.15          67.16    124.692     95.885
    8.80000  2380.65       76.38      2531.38          77.76   -150.810    109.008
    9.00000  2816.17       80.70      2649.69          79.25    165.559    113.117
    9.20000  2271.40       72.72      2171.75          71.75     98.986    102.154
    9.40000  1246.23       62.53      1157.09          61.57     88.675     87.764
    9.60000  674.62        56.73     593.59            55.76     81.093     79.544
    9.80000  690.47        55.49     574.28            54.09    116.134     77.491
   10.00000  650.11        54.77     447.35            52.21    203.606     75.675
   10.20000  497.37        53.33     447.73            52.69     50.063     74.978
   10.40000  549.61        52.20     475.87            51.27     73.629     73.172
   10.60000  619.58        53.45     436.48            51.27    183.113     74.060
   10.80000  631.83        52.53     653.12            52.77    -19.495     74.496
   11.00000  459.72        51.33     493.73            51.79    -33.276     72.925
   11.20000  439.19        51.03     571.14            52.61   -134.152     73.303
   11.40000  455.23        51.00     406.06            50.45     49.390     71.740
   11.60000  538.38        50.19     536.00            50.17      1.888     70.972
   11.80000  573.93        46.73     579.49            46.81     -2.901     66.184
   12.00000  502.59        37.94     624.97            39.05   -121.685     54.473
   12.20000  382.09        37.94     483.50            38.88   -102.072     54.324
   12.40000  548.98        38.74     632.66            39.48    -83.367     55.325
   12.60000  759.49        40.63     910.88            41.91   -151.550     58.370
   12.80000  938.97        42.75     1051.91           43.68   -112.818     61.120
   13.00000  966.57        41.93     1127.24           43.23   -160.593     60.226
   13.20000  883.26        40.74     887.27            40.78     -4.247     57.644
   13.40000  599.70        38.50     592.61            38.42      6.955     54.393
   13.60000  501.64        37.63     467.09            37.31     34.669     52.992
   13.80000  406.53        37.28     396.74            37.19      9.421     52.662
   14.00000  443.33        36.77     448.14            36.81     -4.085     52.034
   14.20000  397.42        36.61     482.80            37.39    -84.185     52.333
   14.40000  574.92        37.05     536.58            36.71     38.629     52.160
   14.60000  672.48        38.06     514.49            36.69    157.375     52.872
   14.80000  1218.70       42.36      956.73           40.30    261.973     58.463
   15.00000  2038.32       48.33      1581.72          45.19    457.201     66.166
   15.20000  2473.27       51.42      1823.20          47.18    649.542     69.787
   15.40000  2408.49       51.36      1607.34          46.02    801.208     68.959
   15.60000  1924.68       47.46      1161.06          42.19    764.079     63.504
   15.80000  1843.13       46.20      916.40           39.55    926.676     60.817
   16.00000  1535.92       40.56      739.87           35.15    796.048     53.671
   16.20000  1223.09       38.00      704.68           34.30    519.056     51.197
   16.40000  781.62        34.78     576.06            33.25    205.534     48.119
   16.60000  619.03        33.13     497.22            32.16    121.899     46.173
   16.80000  505.57        31.83     598.13            32.55    -93.313     45.537
   17.00000  513.34        31.68     462.20            31.27     51.132     44.511
   17.20000  489.86        31.63     426.67            31.16     63.073     44.408
   17.40000  451.39        31.36     501.70            31.76    -50.062     44.635
   17.60000  508.04        31.77     475.44            31.52     32.807     44.761
   17.80000  581.81        32.38     541.25            32.05     40.419     45.560
   18.00000  562.86        32.51     906.08            34.98   -342.591     47.759
   18.20000  766.89        33.35     1573.50           38.62   -806.944     51.035
   18.40000  817.74        33.59     2054.02           41.36  -1236.619     53.281
   18.60000  796.70        33.16     1995.08           40.81  -1198.216     52.587
   18.80000  750.51        32.89     1463.24           37.67   -712.733     50.010
   19.00000  484.90        31.53     800.24            33.81   -314.874     46.235
   19.20000  612.94        32.68     679.12            33.16    -65.837     46.552
   19.40000  781.23        34.38     676.61            33.67    104.165     48.126
   19.60000  1289.18       38.78      876.50           36.32    411.246     53.128
   19.80000  2615.92       46.49      1533.95          40.91   1079.660     61.933
   20.00000  4003.54       51.29      2123.31          42.79   1872.550     66.805
   20.20000  4419.98       50.00      2327.75          41.09   2092.057     64.721
   20.40000  3733.59       46.73      1967.75          38.70   1765.852     60.675
   20.60000  2353.72       39.82      1378.38          34.74    975.344     52.839
   20.80000  1232.64       32.87      838.03           30.55    394.629     44.875
   21.00000  766.54        29.84     696.61            29.41     70.085     41.900
   21.20000  641.73        28.80     530.86            28.07    111.454     40.223
   21.40000  527.51        27.72     561.44            27.95    -34.251     39.366
   21.60000  530.99        28.18     446.06            27.62     85.180     39.463
   21.80000  490.10        28.25     494.58            28.27     -4.460     39.961
   22.00000  514.55        29.30     500.51            29.22     12.603     41.391
   22.20000  533.06        32.35     467.21            31.99     67.120     45.496
   22.40000  648.52        35.82     582.96            35.50     64.928     50.433
   22.60000  917.85        38.65     732.61            37.78    185.123     54.049
   22.80000  1039.30       39.21      799.88           38.09    239.642     54.665
   23.00000  939.74        37.64     802.83            36.98    136.443     52.769
   23.20000  699.73        35.78     518.17            34.86    184.835     49.956
   23.40000  775.60        35.29     659.02            34.71    115.519     49.500
   23.60000  928.82        36.02     793.95            35.33    135.269     50.459
   23.80000  1633.96       37.75      1023.04          34.74    611.101     51.307
   24.00000  2188.94       38.83      1296.80          34.47    891.922     51.920
   24.20000  2444.96       38.05      1446.82          33.24    996.928     50.526
   24.40000  2116.27       32.38      1214.12          28.23    902.153     42.961
   24.60000  1543.45       29.04      942.93           26.11    600.458     39.055
   24.80000  977.04        26.34     667.36            24.66    309.331     36.086
   25.00000  628.41        24.67     492.07            23.89    135.878     34.338
   25.20000  487.43        24.15     480.94            24.11      6.283     34.127
   25.40000  497.39        24.17     447.33            23.88     50.094     33.977
   25.60000  647.35        25.27     465.60            24.25    181.760     35.029
   25.80000  1052.79       27.22      625.33           24.98    427.736     36.944
   26.00000  1649.10       29.87      849.44           25.96    799.590     39.577
   26.20000  2207.57       32.63      1046.96          27.24   1160.633     42.506
   26.40000  2333.00       32.98      1095.76          27.27   1236.758     42.793
   26.60000  2142.82       32.02      1004.78          26.64   1138.028     41.656
   26.80000  1673.56       29.65      836.33           25.43    837.577     39.066
   27.00000  1322.86       27.92      765.03           24.99    557.817     37.468
   27.20000  1287.82       27.03      830.93           24.66    456.819     36.584
   27.40000  1472.66       28.48      1048.04          26.34    424.566     38.793
   27.60000  1567.65       29.09      1103.57          26.79    464.290     39.548
   27.80000  1574.07       29.08      1100.41          26.74    473.699     39.506
   28.00000  1399.46       27.96      1031.16          26.08    367.576     38.239
   28.20000  1030.61       26.35      743.96           24.80    286.496     36.188
   28.40000  758.88        24.54     606.56            23.69    152.411     34.107
   28.60000  628.06        23.52     556.65            23.12     71.553     32.979
   28.80000  445.17        21.95     382.78            21.60     62.336     30.796
   29.00000  449.58        21.93     467.35            22.03    -17.818     31.081
   29.20000  503.80        22.35     448.32            22.03     55.321     31.384
   29.40000  509.06        22.33     546.19            22.53    -37.222     31.723
   29.60000  497.25        22.31     507.60            22.37    -10.629     31.595
   29.80000  490.91        21.67     560.91            22.05    -69.771     30.918
   30.00000  462.58        22.04     470.28            22.09     -7.657     31.203
   30.20000  561.88        22.53     470.89            22.02     91.035     31.509
   30.40000  611.56        22.93     457.03            22.07    154.391     31.833
   30.60000  801.05        24.01     517.54            22.48    284.328     32.897
   30.80000  996.87        24.87     583.47            22.70    413.403     33.669
   31.00000  1032.46       24.83      530.61           22.22    501.968     33.320
   31.20000  964.60        24.52     545.47            22.32    418.420     33.158
   31.40000  813.86        24.21     450.40            22.26    363.109     32.892
   31.60000  686.45        23.58     412.70            22.08    273.569     32.305
   31.80000  549.70        22.98     454.26            22.45     95.515     32.129
   32.00000  422.51        22.74     341.25            22.29     81.356     31.841
   32.20000  395.75        22.67     454.49            22.99    -57.399     32.285
   32.40000  505.26        22.81     514.08            22.85     -8.350     32.286
   32.60000  592.33        23.73     597.95            23.76     -3.901     33.577
   32.80000  578.01        23.90     627.39            24.15    -51.718     33.981
   33.00000  690.80        24.41     637.12            24.14     53.883     34.332
   33.20000  904.55        24.59     776.17            23.95    127.916     34.334
   33.40000  963.10        24.19     867.92            23.74     95.192     33.894
   33.60000  1014.36       24.24      828.51           23.38    185.653     33.679
   33.80000  1026.12       24.20      829.64           23.28    196.445     33.580
   34.00000  835.89        23.52     712.27            22.92    123.456     32.840
   34.20000  763.65        22.83     579.33            21.90    184.269     31.635
   34.40000  633.36        21.85     547.65            21.40     85.645     30.587
   34.60000  522.38        21.30     495.49            21.16     26.985     30.022
   34.80000  468.79        20.78     426.16            20.56     42.732     29.235
   35.00000  516.68        21.05     450.68            20.70     65.823     29.523
   35.20000  517.87        21.25     468.35            20.99     49.580     29.864
   35.40000  564.38        21.54     497.42            21.18     67.636     30.213
   35.60000  659.37        21.96     554.50            21.41    104.447     30.673
   35.80000  739.31        22.34     640.63            21.83     98.625     31.232
   36.00000  780.55        22.82     714.19            22.49     66.515     32.041
   36.20000  813.37        22.41     736.49            22.03     76.715     31.430
   36.40000  824.91        22.94     682.31            22.22    142.408     31.943
   36.60000  699.62        22.55     579.61            21.93    119.821     31.458
   36.80000  648.17        22.53     553.46            22.05     94.734     31.526
   37.00000  618.88        22.13     477.10            21.39    141.924     30.781
   37.20000  616.44        22.19     463.55            21.39    152.998     30.824
   37.40000  606.81        22.10     436.42            21.22    170.605     30.635
   37.60000  760.71        22.67     510.51            21.40    250.185     31.174
   37.80000  823.09        23.34     539.36            21.91    283.648     32.013
   38.00000  1037.79       24.07      670.68           22.32    368.121     32.831
   38.20000  1246.18       23.53      772.13           21.50    473.942     31.880
   38.40000  1453.93       24.36      901.20           22.05    553.021     32.858
   38.60000  1511.67       24.69      929.03           22.29    582.706     33.266
   38.80000  1552.58       24.28      959.34           21.89    593.173     32.692
   39.00000  1442.43       24.36      875.00           22.00    567.582     32.829
   39.20000  1255.67       23.54      811.69           21.64    444.215     31.975
   39.40000  1091.87       23.01      718.89           21.39    373.477     31.418
   39.60000  994.66        22.68     794.16            21.81    200.056     31.469
   39.80000  951.74        22.64     758.71            21.80    193.078     31.432
   40.00000  965.42        22.32     805.74            21.64    159.069     31.088
   40.20000  1014.54       22.55      825.05           21.74    189.197     31.321
   40.40000  1103.25       23.07      834.50           21.91    268.270     31.812
   40.60000  1184.43       23.15      847.84           21.69    336.458     31.719
   40.80000  1163.32       23.00      841.60           21.60    321.963     31.557
   41.00000  1189.78       22.82      840.43           21.29    349.321     31.205
   41.20000  1103.75       22.47      744.38           20.87    358.504     30.666
   41.40000  987.65        21.68     651.18            20.18    336.409     29.618
   41.60000  895.73        21.68     550.27            20.08    345.774     29.553
   41.80000  770.71        21.06     536.03            19.96    234.847     29.021
   42.00000  739.94        20.69     566.98            19.86    173.126     28.682
   42.20000  611.68        20.21     497.18            19.66    114.463     28.194
   42.40000  579.35        20.14     496.71            19.75     82.640     28.211
   42.60000  674.59        20.47     612.71            20.18     62.309     28.748
   42.80000  799.77        21.00     660.72            20.36    138.989     29.246
   43.00000  918.99        21.80     759.38            21.07    159.611     30.315
   43.20000  970.80        21.71     813.78            21.02    157.105     30.222
   43.40000  989.30        21.27     775.88            20.34    213.415     29.430
   43.60000  935.56        21.05     741.83            20.21    194.529     29.191
   43.80000  858.98        20.78     653.32            19.86    205.628     28.744
   44.00000  747.31        19.91     644.53            19.46    102.771     27.839
   44.20000  612.06        19.80     536.06            19.45     76.066     27.753
   44.40000  593.74        19.54     552.90            19.36     40.864     27.508
   44.60000  530.94        19.27     489.24            19.07     41.790     27.107
   44.80000  528.63        19.13     500.05            19.00     28.505     26.966
   45.00000  469.52        19.06     430.64            18.87     39.021     26.827
   45.20000  534.29        19.03     473.40            18.74     60.832     26.708
   45.40000  525.74        19.05     434.18            18.61     90.895     26.634
   45.60000  550.94        19.36     430.33            18.78    120.623     26.974
   45.80000  506.21        19.46     369.13            18.80    137.120     27.062
   46.00000  552.60        19.45     408.85            18.76    143.476     27.026
   46.20000  553.46        19.66     382.02            18.84    171.092     27.230
   46.40000  687.62        19.99     445.80            18.86    241.815     27.488
   46.60000  788.41        20.57     527.19            19.39    261.230     28.262
   46.80000  865.62        21.07     582.79            19.80    282.264     28.913
   47.00000  989.21        21.73     621.68            20.12    367.663     29.615
   47.20000  1036.96       21.86      704.48           20.41    332.626     29.902
   47.40000  1098.85       22.19      779.26           20.82    319.581     30.432
   47.60000  1102.77       22.26      749.03           20.76    354.319     30.436
   47.80000  1075.87       21.73      806.10           20.60    269.699     29.939
   48.00000  1080.76       22.09      777.22           20.78    303.261     30.331
   48.20000  966.23        21.67     775.51            20.84    190.794     30.068
   48.40000  931.75        21.65     720.35            20.71    211.388     29.963
   48.60000  951.50        21.58     724.42            20.58    227.333     29.821
   48.80000  1002.48       21.72      756.01           20.64    246.577     29.967
   49.00000  1031.25       20.95      788.10           19.94    243.033     28.923
   49.20000  1069.00       21.06      796.87           19.93    272.238     28.995
   49.40000  1083.97       21.42      778.77           20.16    305.313     29.416
   49.60000  1064.51       21.38      774.61           20.16    289.900     29.385
   49.80000  974.36        21.06     687.69            19.84    286.558     28.934
   50.00000  951.34        20.77     694.11            19.66    256.951     28.599
   50.20000  804.20        20.45     559.25            19.39    244.897     28.176
   50.40000  714.32        19.84     494.37            18.89    219.975     27.400
   50.60000  623.51        19.99     430.84            19.13    192.570     27.674
   50.80000  586.16        19.90     364.58            18.88    221.225     27.426
   51.00000  543.88        19.66     424.13            19.12    120.032     27.425
   51.20000  488.87        19.43     342.94            18.76    145.908     27.010
   51.40000  447.83        19.32     354.02            18.90     93.897     27.033
   51.60000  513.26        19.42     340.74            18.63    171.905     26.921
   51.80000  460.48        19.29     365.78            18.86     94.830     26.975
   52.00000  478.07        19.69     385.82            19.27     92.403     27.551
   52.20000  469.20        19.64     416.23            19.40     52.969     27.609
   52.40000  457.61        19.69     420.67            19.53     36.674     27.737
   52.60000  436.64        19.66     387.20            19.42     49.869     27.640
   52.80000  469.28        19.90     363.95            19.42    105.205     27.805
   53.00000  454.48        19.45     393.31            19.17     61.155     27.311
   53.20000  433.11        19.83     384.81            19.61     48.500     27.890
   53.40000  452.99        19.92     393.66            19.66     59.638     27.991
   53.60000  460.91        20.11     385.75            19.77     74.300     28.200
   53.80000  479.42        20.05     372.58            19.56    106.827     28.016
   54.00000  514.08        20.17     406.62            19.69    107.414     28.191
   54.20000  520.71        20.18     373.26            19.53    148.697     28.085
   54.40000  556.73        20.36     444.45            19.87    112.308     28.444
   54.60000  640.13        20.93     460.57            20.15    179.834     29.052
   54.80000  772.45        21.23     619.57            20.56    153.042     29.550
   55.00000  745.57        21.06     596.61            20.42    148.858     29.337
   55.20000  827.09        21.06     654.50            20.32    172.786     29.268
   55.40000  863.20        19.97     682.19            19.24    180.906     27.732
   55.60000  816.19        19.45     712.54            19.04    103.607     27.215
   55.80000  802.26        19.82     725.82            19.50     76.299     27.808
   56.00000  762.03        19.72     668.88            19.34     93.163     27.619
   56.20000  748.92        19.44     690.69            19.19     58.125     27.322
   56.40000  764.06        19.41     674.79            19.05     89.264     27.194
   56.60000  673.13        19.15     624.78            18.95     48.364     26.946
   56.80000  658.88        18.93     591.05            18.65     68.042     26.576
   57.00000  656.83        18.95     574.08            18.59     82.743     26.546
   57.20000  647.48        19.00     549.50            18.58     98.030     26.576
   57.40000  632.71        19.01     532.24            18.58    100.583     26.589
   57.60000  579.93        18.76     485.92            18.35     93.992     26.246
   57.80000  559.33        18.67     495.27            18.41     64.329     26.221
   58.00000  578.68        18.69     409.25            17.96    169.479     25.919
   58.20000  584.81        18.83     417.08            18.11    167.744     26.127
   58.40000  575.37        19.05     432.76            18.46    142.634     26.527
   58.60000  603.54        19.11     447.21            18.45    156.365     26.564
   58.80000  640.61        19.32     474.09            18.60    166.438     26.820
   59.00000  684.90        19.35     529.04            18.68    155.865     26.895
   59.20000  710.68        19.57     544.50            18.87    165.459     27.191
   59.40000  787.38        19.55     615.82            18.84    171.141     27.153
   59.60000  809.81        20.02     642.48            19.34    167.320     27.839
   59.80000  823.77        19.97     695.08            19.44    128.713     27.865
   60.00000  826.28        20.05     698.82            19.54    127.545     27.995
   60.20000  838.05        20.14     678.24            19.49    159.816     28.025
   60.40000  754.59        19.70     635.75            19.21    118.923     27.518
   60.60000  714.59        19.58     604.37            19.14    109.951     27.386
   60.80000  688.71        19.42     583.78            19.01    105.146     27.175
   61.00000  696.51        19.61     582.59            19.13    113.808     27.393
   61.20000  675.24        19.53     569.00            19.08    105.817     27.303
   61.40000  613.01        19.43     457.24            18.76    155.770     27.010
   61.60000  637.10        19.31     470.77            18.60    166.361     26.811
   61.80000  544.48        19.14     396.37            18.50    148.253     26.621
   62.00000  516.27        18.73     352.58            18.03    163.740     26.000
   62.20000  455.27        18.93     362.03            18.51     93.185     26.475
   62.40000  474.72        19.00     379.43            18.60     95.341     26.588
   62.60000  456.16        18.89     383.13            18.55     73.025     26.477
   62.80000  466.05        18.86     356.88            18.37    109.067     26.328
   63.00000  456.94        18.38     326.35            17.84    130.370     25.616
   63.20000  440.41        18.02     354.34            17.65     85.989     25.226
   63.40000  512.77        18.29     418.84            17.88     93.928     25.580
   63.60000  488.59        18.45     414.36            18.14     74.215     25.874
   63.80000  548.22        18.59     454.19            18.17     94.051     25.997
   64.00000  630.73        18.73     492.07            18.14    138.674     26.070
   64.20000  605.66        18.78     437.66            18.07    167.889     26.063
   64.40000  659.66        18.98     516.44            18.38    142.967     26.418
   64.60000  782.99        19.10     592.39            18.33    190.717     26.470
   64.80000  839.92        19.70     625.32            18.81    214.618     27.242
   65.00000  919.40        19.95     696.39            19.04    222.992     27.582
   65.20000  924.99        20.01     707.15            19.14    217.277     27.686
   65.40000  1017.50       20.21      801.94           19.36    215.501     27.987
   65.60000  1000.25       20.27      785.10           19.42    215.144     28.068
   65.80000  1035.91       20.12      838.97           19.36    196.955     27.925
   66.00000  1062.77       20.26      814.77           19.29    248.083     27.972
   66.20000  1023.34       20.31      820.36           19.51    203.016     28.165
   66.40000  950.90        20.05     786.30            19.38    164.572     27.888
   66.60000  901.83        19.85     723.91            19.11    177.795     27.550
   66.80000  858.09        19.68     703.26            19.04    154.921     27.381
   67.00000  788.71        19.33     663.21            18.81    125.577     26.977
   67.20000  818.61        19.15     622.00            18.35    196.802     26.525
   67.40000  731.56        19.16     609.02            18.65    122.507     26.739
   67.60000  699.64        19.07     587.80            18.58    111.853     26.627
   67.80000  615.29        18.76     508.89            18.30    107.416     26.214
   68.00000  584.64        18.69     450.59            18.11    133.497     26.030
   68.20000  610.66        18.77     481.61            18.19    128.796     26.138
   68.40000  515.66        18.57     438.07            18.22     77.725     26.014
   68.60000  566.21        18.84     513.38            18.61     52.808     26.480
   68.80000  557.98        19.09     489.74            18.80     68.284     26.790
   69.00000  590.37        19.10     496.35            18.68     94.022     26.719
   69.20000  602.21        19.10     494.58            18.61    107.632     26.668
   69.40000  610.71        19.04     558.70            18.80     51.649     26.764
   69.60000  631.87        19.24     495.94            18.65    136.161     26.794
   69.80000  614.17        19.33     526.89            18.93     87.256     27.059
   70.00000  591.01        19.73     555.20            19.57     36.170     27.790
   70.20000  682.02        19.90     570.09            19.41    111.849     27.799
   70.40000  671.82        19.93     558.63            19.42    113.192     27.828
   70.60000  620.64        19.65     564.74            19.40     55.859     27.611
   70.80000  672.90        19.91     521.03            19.23    151.711     27.685
   71.00000  623.43        19.82     521.46            19.37    101.828     27.716
   71.20000  650.80        20.39     527.79            19.83    122.940     28.444
   71.40000  656.90        20.31     562.97            19.88     93.850     28.422
   71.60000  610.22        20.36     494.24            19.83    115.860     28.422
   71.80000  570.86        20.20     472.73            19.73     98.157     28.241
   72.00000  576.21        20.21     466.77            19.70    109.739     28.229
   72.20000  611.69        20.39     520.16            19.97     91.612     28.545
   72.40000  659.55        20.73     527.62            20.12    131.827     28.887
   72.60000  614.16        20.83     557.11            20.54     57.018     29.256
   72.80000  639.04        21.14     550.08            20.71     88.933     29.599
   73.00000  596.43        20.82     572.05            20.70     24.407     29.355
   73.20000  557.56        20.74     532.20            20.61     25.415     29.243
   73.40000  562.18        20.65     539.59            20.54     22.846     29.130
   73.60000  614.91        20.34     573.38            20.15     41.478     28.636
   73.80000  648.89        20.81     601.64            20.60     47.184     29.280
   74.00000  644.83        20.90     598.98            20.67     46.010     29.400
   74.20000  647.35        20.85     604.49            20.66     43.225     29.350
   74.40000  625.47        20.75     583.45            20.56     41.907     29.207
   74.60000  659.67        20.98     571.60            20.56     88.133     29.379
   74.80000  598.98        20.63     555.60            20.43     43.483     29.037
   75.00000  649.05        21.10     590.07            20.82     58.963     29.643
   75.20000  720.45        21.57     600.83            21.01    119.761     30.113
   75.40000  704.04        21.52     644.58            21.24     59.456     30.235
   75.60000  639.50        21.38     591.09            21.14     48.463     30.073
   75.80000  681.64        21.39     628.85            21.15     52.617     30.085
   76.00000  717.42        21.59     602.84            21.04    114.921     30.150
   76.20000  691.49        21.53     616.86            21.16     74.546     30.191
   76.40000  666.95        21.93     634.47            21.77     32.648     30.902
   76.60000  670.42        22.02     540.49            21.38    130.257     30.691
   76.80000  627.38        21.94     483.20            21.22    144.350     30.522
   77.00000  554.07        21.69     521.92            21.53     31.308     30.565
   77.20000  578.27        21.76     535.31            21.53     43.003     30.609
   77.40000  603.68        21.85     443.49            21.07    159.704     30.358
   77.60000  612.98        22.41     433.23            21.49    179.667     31.051
   77.80000  636.95        22.60     496.25            21.89    140.953     31.462
   78.00000  602.01        22.52     449.83            21.72    152.426     31.293
   78.20000  605.13        22.55     514.09            22.08     91.400     31.557
   78.40000  618.76        22.50     485.65            21.80    132.971     31.328
   78.60000  583.18        22.41     487.78            21.93     95.510     31.360
   78.80000  586.35        22.52     510.53            22.15     75.828     31.583
   79.00000  633.06        23.39     538.35            22.92     93.869     32.753
   79.20000  668.07        23.68     592.58            23.30     75.430     33.221
   79.40000  673.48        23.59     539.33            22.89    134.370     32.871
   79.60000  620.36        23.39     568.03            23.12     51.982     32.889
   79.80000  697.11        23.49     609.58            23.03     87.808     32.895
   80.00000  696.35        23.69     559.43            23.00    137.536     33.024
   80.20000  673.40        23.99     578.50            23.48     94.971     33.574
   80.40000  715.34        24.45     631.24            24.00     84.215     34.262
   80.60000  625.41        23.98     627.00            23.99     -1.573     33.923
   80.80000  659.25        24.30     600.44            24.00     58.828     34.151
   81.00000  617.92        24.10     526.94            23.63     91.021     33.753
   81.20000  643.90        24.21     551.74            23.72     92.403     33.891
   81.40000  610.43        24.05     570.73            23.84     39.750     33.863
   81.60000  687.21        25.11     535.41            24.27    151.743     34.927
   81.80000  604.92        24.92     559.32            24.65     45.418     35.053
   82.00000  589.97        24.97     499.26            24.46     91.234     34.953 