#wavelength 2.428257
#field  0.000 0.000 0.001
#   ttheta     IntUP    sIntUP   IntDOWN  sIntDOWN
  14.0000      340.6       18.46         340.6       18.46    
  14.1000      336.8       18.35         336.8       18.35    
  14.2000      341.4       18.48         341.4       18.48    
  14.3000      343.8       18.54         343.8       18.54    
  14.4000      335.5       18.32         335.5       18.32    
  14.5000      336.7       18.35         336.7       18.35    
  14.6000      338.5       18.40         338.5       18.40    
  14.7000      333.0       18.25         333.0       18.25    
  14.8000      337.6       18.37         337.6       18.37    
  14.9000      341.8       18.49         341.8       18.49    
  15.0000      340.3       18.45         340.3       18.45    
  15.1000      332.9       18.25         332.9       18.25    
  15.2000      343.4       18.53         343.4       18.53    
  15.3000      341.5       18.48         341.5       18.48    
  15.4000      340.5       18.45         340.5       18.45    
  15.5000      344.6       18.56         344.6       18.56    
  15.6000      344.2       18.55         344.2       18.55    
  15.7000      341.3       18.47         341.3       18.47    
  15.8000      341.3       18.47         341.3       18.47    
  15.9000      339.2       18.42         339.2       18.42    
  16.0000      331.9       18.22         331.9       18.22    
  16.1000      333.1       18.25         333.1       18.25    
  16.2000      343.2       18.53         343.2       18.53    
  16.3000      341.9       18.49         341.9       18.49    
  16.4000      335.8       18.32         335.8       18.32    
  16.5000      338.5       18.40         338.5       18.40    
  16.6000      354.3       18.82         354.3       18.82    
  16.7000      345.6       18.59         345.6       18.59    
  16.8000      344.8       18.57         344.8       18.57    
  16.9000      349.8       18.70         349.8       18.70    
  17.0000      341.4       18.48         341.4       18.48    
  17.1000      346.7       18.62         346.7       18.62    
  17.2000      332.5       18.23         332.5       18.23    
  17.3000      339.6       18.43         339.6       18.43    
  17.4000      334.9       18.30         334.9       18.30    
  17.5000      340.8       18.46         340.8       18.46    
  17.6000      341.4       18.48         341.4       18.48    
  17.7000      334.2       18.28         334.2       18.28    
  17.8000      334.4       18.29         334.4       18.29    
  17.9000      345.6       18.59         345.6       18.59    
  18.0000      330.5       18.18         330.5       18.18    
  18.1000      328.4       18.12         328.4       18.12    
  18.2000      337.0       18.36         337.0       18.36    
  18.3000      337.1       18.36         337.1       18.36    
  18.4000      336.7       18.35         336.7       18.35    
  18.5000      340.3       18.45         340.3       18.45    
  18.6000      337.7       18.38         337.7       18.38    
  18.7000      353.8       18.81         353.8       18.81    
  18.8000      349.6       18.70         349.6       18.70    
  18.9000      394.0       19.85         394.0       19.85    
  19.0000      526.8       22.95         526.8       22.95    
  19.1000      732.9       27.07         732.9       27.07    
  19.2000      868.1       29.46         868.1       29.46    
  19.3000      832.3       28.85         832.3       28.85    
  19.4000      668.3       25.85         668.3       25.85    
  19.5000      465.9       21.58         465.9       21.58    
  19.6000      371.9       19.28         371.9       19.28    
  19.7000      345.7       18.59         345.7       18.59    
  19.8000      333.8       18.27         333.8       18.27    
  19.9000      339.6       18.43         339.6       18.43    
  20.0000      345.9       18.60         345.9       18.60    
  20.1000      348.2       18.66         348.2       18.66    
  20.2000      351.4       18.75         351.4       18.75    
  20.3000      338.5       18.40         338.5       18.40    
  20.4000      334.6       18.29         334.6       18.29    
  20.5000      328.3       18.12         328.3       18.12    
  20.6000      329.6       18.15         329.6       18.15    
  20.7000      336.6       18.35         336.6       18.35    
  20.8000      331.4       18.20         331.4       18.20    
  20.9000      326.1       18.06         326.1       18.06    
  21.0000      336.2       18.34         336.2       18.34    
  21.1000      327.9       18.11         327.9       18.11    
  21.2000      331.9       18.22         331.9       18.22    
  21.3000      328.5       18.12         328.5       18.12    
  21.4000      329.1       18.14         329.1       18.14    
  21.5000      334.7       18.29         334.7       18.29    
  21.6000      324.1       18.00         324.1       18.00    
  21.7000      322.2       17.95         322.2       17.95    
  21.8000      331.7       18.21         331.7       18.21    
  21.9000      330.0       18.17         330.0       18.17    
  22.0000      328.9       18.14         328.9       18.14    
  22.1000      334.2       18.28         334.2       18.28    
  22.2000      335.1       18.31         335.1       18.31    
  22.3000      345.8       18.60         345.8       18.60    
  22.4000      340.4       18.45         340.4       18.45    
  22.5000      342.1       18.50         342.1       18.50    
  22.6000      335.9       18.33         335.9       18.33    
  22.7000      328.7       18.13         328.7       18.13    
  22.8000      332.2       18.23         332.2       18.23    
  22.9000      333.6       18.26         333.6       18.26    
  23.0000      334.8       18.30         334.8       18.30    
  23.1000      330.0       18.17         330.0       18.17    
  23.2000      336.3       18.34         336.3       18.34    
  23.3000      332.6       18.24         332.6       18.24    
  23.4000      336.4       18.34         336.4       18.34    
  23.5000      338.6       18.40         338.6       18.40    
  23.6000      327.8       18.11         327.8       18.11    
  23.7000      334.1       18.28         334.1       18.28    
  23.8000      338.6       18.40         338.6       18.40    
  23.9000      324.2       18.01         324.2       18.01    
  24.0000      330.1       18.17         330.1       18.17    
  24.1000      330.5       18.18         330.5       18.18    
  24.2000      338.2       18.39         338.2       18.39    
  24.3000      328.4       18.12         328.4       18.12    
  24.4000      329.3       18.15         329.3       18.15    
  24.5000      326.4       18.07         326.4       18.07    
  24.6000      339.1       18.41         339.1       18.41    
  24.7000      322.0       17.94         322.0       17.94    
  24.8000      326.0       18.06         326.0       18.06    
  24.9000      332.8       18.24         332.8       18.24    
  25.0000      330.3       18.17         330.3       18.17    
  25.1000      320.6       17.91         320.6       17.91    
  25.2000      329.7       18.16         329.7       18.16    
  25.3000      331.7       18.21         331.7       18.21    
  25.4000      329.9       18.16         329.9       18.16    
  25.5000      332.8       18.24         332.8       18.24    
  25.6000      324.3       18.01         324.3       18.01    
  25.7000      334.5       18.29         334.5       18.29    
  25.8000      328.5       18.12         328.5       18.12    
  25.9000      332.2       18.23         332.2       18.23    
  26.0000      346.0       18.60         346.0       18.60    
  26.1000      338.4       18.40         338.4       18.40    
  26.2000      332.2       18.23         332.2       18.23    
  26.3000      329.5       18.15         329.5       18.15    
  26.4000      342.3       18.50         342.3       18.50    
  26.5000      342.3       18.50         342.3       18.50    
  26.6000      346.3       18.61         346.3       18.61    
  26.7000      354.3       18.82         354.3       18.82    
  26.8000      353.9       18.81         353.9       18.81    
  26.9000      353.9       18.81         353.9       18.81    
  27.0000      434.4       20.84         434.4       20.84    
  27.1000      807.7       28.42         807.7       28.42    
  27.2000     1818.0       42.64        1818.0       42.64    
  27.3000     2525.9       50.26        2525.9       50.26    
  27.4000     2649.7       51.48        2649.7       51.48    
  27.5000     2022.7       44.97        2022.7       44.97    
  27.6000     1181.1       34.37        1181.1       34.37    
  27.7000      587.9       24.25         587.9       24.25    
  27.8000      377.6       19.43         377.6       19.43    
  27.9000      355.5       18.85         355.5       18.85    
  28.0000      348.7       18.67         348.7       18.67    
  28.1000      337.9       18.38         337.9       18.38    
  28.2000      339.9       18.44         339.9       18.44    
  28.3000      344.5       18.56         344.5       18.56    
  28.4000      335.7       18.32         335.7       18.32    
  28.5000      333.3       18.26         333.3       18.26    
  28.6000      337.2       18.36         337.2       18.36    
  28.7000      332.9       18.25         332.9       18.25    
  28.8000      328.6       18.13         328.6       18.13    
  28.9000      332.7       18.24         332.7       18.24    
  29.0000      329.4       18.15         329.4       18.15    
  29.1000      324.8       18.02         324.8       18.02    
  29.2000      332.2       18.23         332.2       18.23    
  29.3000      328.7       18.13         328.7       18.13    
  29.4000      325.8       18.05         325.8       18.05    
  29.5000      324.0       18.00         324.0       18.00    
  29.6000      323.6       17.99         323.6       17.99    
  29.7000      327.5       18.10         327.5       18.10    
  29.8000      329.0       18.14         329.0       18.14    
  29.9000      310.1       17.61         310.1       17.61    
  30.0000      317.6       17.82         317.6       17.82    
  30.1000      327.3       18.09         327.3       18.09    
  30.2000      314.9       17.75         314.9       17.75    
  30.3000      318.8       17.85         318.8       17.85    
  30.4000      325.9       18.05         325.9       18.05    
  30.5000      321.0       17.92         321.0       17.92    
  30.6000      342.7       18.51         342.7       18.51    
  30.7000      334.9       18.30         334.9       18.30    
  30.8000      329.8       18.16         329.8       18.16    
  30.9000      326.7       18.07         326.7       18.07    
  31.0000      331.1       18.20         331.1       18.20    
  31.1000      319.4       17.87         319.4       17.87    
  31.2000      324.6       18.02         324.6       18.02    
  31.3000      325.4       18.04         325.4       18.04    
  31.4000      320.6       17.91         320.6       17.91    
  31.5000      329.8       18.16         329.8       18.16    
  31.6000      322.6       17.96         322.6       17.96    
  31.7000      324.4       18.01         324.4       18.01    
  31.8000      326.3       18.06         326.3       18.06    
  31.9000      331.9       18.22         331.9       18.22    
  32.0000      327.1       18.09         327.1       18.09    
  32.1000      337.2       18.36         337.2       18.36    
  32.2000      341.5       18.48         341.5       18.48    
  32.3000      331.9       18.22         331.9       18.22    
  32.4000      334.8       18.30         334.8       18.30    
  32.5000      335.9       18.33         335.9       18.33    
  32.6000      339.4       18.42         339.4       18.42    
  32.7000      337.9       18.38         337.9       18.38    
  32.8000      340.4       18.45         340.4       18.45    
  32.9000      342.9       18.52         342.9       18.52    
  33.0000      347.9       18.65         347.9       18.65    
  33.1000      363.1       19.06         363.1       19.06    
  33.2000      361.1       19.00         361.1       19.00    
  33.3000      392.8       19.82         392.8       19.82    
  33.4000      731.2       27.04         731.2       27.04    
  33.5000     1783.0       42.23        1783.0       42.23    
  33.6000     3013.8       54.90        3013.8       54.90    
  33.7000     3477.5       58.97        3477.5       58.97    
  33.8000     3034.3       55.08        3034.3       55.08    
  33.9000     1998.3       44.70        1998.3       44.70    
  34.0000      967.5       31.10         967.5       31.10    
  34.1000      458.0       21.40         458.0       21.40    
  34.2000      357.5       18.91         357.5       18.91    
  34.3000      354.2       18.82         354.2       18.82    
  34.4000      351.5       18.75         351.5       18.75    
  34.5000      345.0       18.57         345.0       18.57    
  34.6000      344.7       18.57         344.7       18.57    
  34.7000      335.8       18.32         335.8       18.32    
  34.8000      340.7       18.46         340.7       18.46    
  34.9000      336.6       18.35         336.6       18.35    
  35.0000      330.5       18.18         330.5       18.18    
  35.1000      340.0       18.44         340.0       18.44    
  35.2000      327.8       18.11         327.8       18.11    
  35.3000      331.6       18.21         331.6       18.21    
  35.4000      328.5       18.12         328.5       18.12    
  35.5000      321.6       17.93         321.6       17.93    
  35.6000      316.6       17.79         316.6       17.79    
  35.7000      316.0       17.78         316.0       17.78    
  35.8000      335.6       18.32         335.6       18.32    
  35.9000      328.1       18.11         328.1       18.11    
  36.0000      327.5       18.10         327.5       18.10    
  36.1000      324.0       18.00         324.0       18.00    
  36.2000      319.6       17.88         319.6       17.88    
  36.3000      323.2       17.98         323.2       17.98    
  36.4000      314.5       17.73         314.5       17.73    
  36.5000      320.3       17.90         320.3       17.90    
  36.6000      333.1       18.25         333.1       18.25    
  36.7000      328.7       18.13         328.7       18.13    
  36.8000      324.5       18.01         324.5       18.01    
  36.9000      334.8       18.30         334.8       18.30    
  37.0000      322.8       17.97         322.8       17.97    
  37.1000      336.6       18.35         336.6       18.35    
  37.2000      328.6       18.13         328.6       18.13    
  37.3000      330.0       18.17         330.0       18.17    
  37.4000      326.1       18.06         326.1       18.06    
  37.5000      335.3       18.31         335.3       18.31    
  37.6000      341.8       18.49         341.8       18.49    
  37.7000      349.1       18.68         349.1       18.68    
  37.8000      355.5       18.85         355.5       18.85    
  37.9000      344.3       18.56         344.3       18.56    
  38.0000      341.1       18.47         341.1       18.47    
  38.1000      354.3       18.82         354.3       18.82    
  38.2000      362.0       19.03         362.0       19.03    
  38.3000      364.3       19.09         364.3       19.09    
  38.4000      372.1       19.29         372.1       19.29    
  38.5000      380.7       19.51         380.7       19.51    
  38.6000      385.6       19.64         385.6       19.64    
  38.7000      446.3       21.13         446.3       21.13    
  38.8000      857.8       29.29         857.8       29.29    
  38.9000     2274.3       47.69        2274.3       47.69    
  39.0000     4252.2       65.21        4252.2       65.21    
  39.1000     5520.4       74.30        5520.4       74.30    
  39.2000     5145.9       71.73        5145.9       71.73    
  39.3000     3560.8       59.67        3560.8       59.67    
  39.4000     1778.9       42.18        1778.9       42.18    
  39.5000      695.9       26.38         695.9       26.38    
  39.6000      413.5       20.33         413.5       20.33    
  39.7000      387.8       19.69         387.8       19.69    
  39.8000      385.5       19.63         385.5       19.63    
  39.9000      369.7       19.23         369.7       19.23    
  40.0000      360.2       18.98         360.2       18.98    
  40.1000      355.5       18.85         355.5       18.85    
  40.2000      348.1       18.66         348.1       18.66    
  40.3000      350.4       18.72         350.4       18.72    
  40.4000      337.4       18.37         337.4       18.37    
  40.5000      338.5       18.40         338.5       18.40    
  40.6000      339.0       18.41         339.0       18.41    
  40.7000      330.7       18.19         330.7       18.19    
  40.8000      329.3       18.15         329.3       18.15    
  40.9000      330.0       18.17         330.0       18.17    
  41.0000      323.5       17.99         323.5       17.99    
  41.1000      329.5       18.15         329.5       18.15    
  41.2000      324.0       18.00         324.0       18.00    
  41.3000      322.5       17.96         322.5       17.96    
  41.4000      324.2       18.01         324.2       18.01    
  41.5000      325.7       18.05         325.7       18.05    
  41.6000      341.2       18.47         341.2       18.47    
  41.7000      326.5       18.07         326.5       18.07    
  41.8000      323.6       17.99         323.6       17.99    
  41.9000      315.0       17.75         315.0       17.75    
  42.0000      323.8       17.99         323.8       17.99    
  42.1000      320.8       17.91         320.8       17.91    
  42.2000      326.8       18.08         326.8       18.08    
  42.3000      313.8       17.71         313.8       17.71    
  42.4000      332.3       18.23         332.3       18.23    
  42.5000      317.9       17.83         317.9       17.83    
  42.6000      321.0       17.92         321.0       17.92    
  42.7000      322.5       17.96         322.5       17.96    
  42.8000      333.4       18.26         333.4       18.26    
  42.9000      324.3       18.01         324.3       18.01    
  43.0000      322.6       17.96         322.6       17.96    
  43.1000      321.9       17.94         321.9       17.94    
  43.2000      334.6       18.29         334.6       18.29    
  43.3000      325.5       18.04         325.5       18.04    
  43.4000      330.5       18.18         330.5       18.18    
  43.5000      332.0       18.22         332.0       18.22    
  43.6000      376.0       19.39         376.0       19.39    
  43.7000      519.7       22.80         519.7       22.80    
  43.8000      798.8       28.26         798.8       28.26    
  43.9000     1073.5       32.76        1073.5       32.76    
  44.0000     1180.1       34.35        1180.1       34.35    
  44.1000     1011.0       31.80        1011.0       31.80    
  44.2000      714.4       26.73         714.4       26.73    
  44.3000      475.4       21.80         475.4       21.80    
  44.4000      345.9       18.60         345.9       18.60    
  44.5000      338.6       18.40         338.6       18.40    
  44.6000      324.2       18.01         324.2       18.01    
  44.7000      334.2       18.28         334.2       18.28    
  44.8000      334.7       18.29         334.7       18.29    
  44.9000      328.8       18.13         328.8       18.13    
  45.0000      343.4       18.53         343.4       18.53    
  45.1000      363.6       19.07         363.6       19.07    
  45.2000      383.6       19.59         383.6       19.59    
  45.3000      385.3       19.63         385.3       19.63    
  45.4000      366.5       19.14         366.5       19.14    
  45.5000      341.6       18.48         341.6       18.48    
  45.6000      331.4       18.20         331.4       18.20    
  45.7000      318.3       17.84         318.3       17.84    
  45.8000      324.1       18.00         324.1       18.00    
  45.9000      322.5       17.96         322.5       17.96    
  46.0000      322.6       17.96         322.6       17.96    
  46.1000      315.0       17.75         315.0       17.75    
  46.2000      324.8       18.02         324.8       18.02    
  46.3000      328.4       18.12         328.4       18.12    
  46.4000      311.5       17.65         311.5       17.65    
  46.5000      323.7       17.99         323.7       17.99    
  46.6000      327.8       18.11         327.8       18.11    
  46.7000      312.4       17.67         312.4       17.67    
  46.8000      322.7       17.96         322.7       17.96    
  46.9000      322.8       17.97         322.8       17.97    
  47.0000      325.5       18.04         325.5       18.04    
  47.1000      324.7       18.02         324.7       18.02    
  47.2000      323.6       17.99         323.6       17.99    
  47.3000      325.3       18.04         325.3       18.04    
  47.4000      329.4       18.15         329.4       18.15    
  47.5000      331.6       18.21         331.6       18.21    
  47.6000      327.3       18.09         327.3       18.09    
  47.7000      325.8       18.05         325.8       18.05    
  47.8000      340.7       18.46         340.7       18.46    
  47.9000      345.5       18.59         345.5       18.59    
  48.0000      373.5       19.33         373.5       19.33    
  48.1000      517.0       22.74         517.0       22.74    
  48.2000      864.2       29.40         864.2       29.40    
  48.3000     1294.4       35.98        1294.4       35.98    
  48.4000     1643.5       40.54        1643.5       40.54    
  48.5000     1603.2       40.04        1603.2       40.04    
  48.6000     1248.7       35.34        1248.7       35.34    
  48.7000      805.0       28.37         805.0       28.37    
  48.8000      470.5       21.69         470.5       21.69    
  48.9000      349.2       18.69         349.2       18.69    
  49.0000      338.6       18.40         338.6       18.40    
  49.1000      333.9       18.27         333.9       18.27    
  49.2000      342.8       18.51         342.8       18.51    
  49.3000      321.5       17.93         321.5       17.93    
  49.4000      326.3       18.06         326.3       18.06    
  49.5000      323.1       17.97         323.1       17.97    
  49.6000      321.1       17.92         321.1       17.92    
  49.7000      339.0       18.41         339.0       18.41    
  49.8000      325.6       18.04         325.6       18.04    
  49.9000      327.2       18.09         327.2       18.09    
  50.0000      318.4       17.84         318.4       17.84    
  50.1000      334.6       18.29         334.6       18.29    
  50.2000      319.9       17.89         319.9       17.89    
  50.3000      320.2       17.89         320.2       17.89    
  50.4000      324.1       18.00         324.1       18.00    
  50.5000      324.8       18.02         324.8       18.02    
  50.6000      329.5       18.15         329.5       18.15    
  50.7000      332.9       18.25         332.9       18.25    
  50.8000      330.1       18.17         330.1       18.17    
  50.9000      329.7       18.16         329.7       18.16    
  51.0000      339.3       18.42         339.3       18.42    
  51.1000      343.4       18.53         343.4       18.53    
  51.2000      327.8       18.11         327.8       18.11    
  51.3000      341.0       18.47         341.0       18.47    
  51.4000      339.5       18.43         339.5       18.43    
  51.5000      341.7       18.49         341.7       18.49    
  51.6000      341.8       18.49         341.8       18.49    
  51.7000      350.2       18.71         350.2       18.71    
  51.8000      348.8       18.68         348.8       18.68    
  51.9000      347.4       18.64         347.4       18.64    
  52.0000      349.6       18.70         349.6       18.70    
  52.1000      369.7       19.23         369.7       19.23    
  52.2000      497.2       22.30         497.2       22.30    
  52.3000      816.7       28.58         816.7       28.58    
  52.4000     1384.7       37.21        1384.7       37.21    
  52.5000     1973.7       44.43        1973.7       44.43    
  52.6000     2327.5       48.24        2327.5       48.24    
  52.7000     2162.1       46.50        2162.1       46.50    
  52.8000     1626.5       40.33        1626.5       40.33    
  52.9000      968.7       31.12         968.7       31.12    
  53.0000      517.2       22.74         517.2       22.74    
  53.1000      383.4       19.58         383.4       19.58    
  53.2000      353.5       18.80         353.5       18.80    
  53.3000      339.4       18.42         339.4       18.42    
  53.4000      347.2       18.63         347.2       18.63    
  53.5000      334.7       18.29         334.7       18.29    
  53.6000      334.2       18.28         334.2       18.28    
  53.7000      340.9       18.46         340.9       18.46    
  53.8000      337.2       18.36         337.2       18.36    
  53.9000      339.0       18.41         339.0       18.41    
  54.0000      332.0       18.22         332.0       18.22    
  54.1000      331.1       18.20         331.1       18.20    
  54.2000      331.9       18.22         331.9       18.22    
  54.3000      338.7       18.40         338.7       18.40    
  54.4000      322.2       17.95         322.2       17.95    
  54.5000      329.8       18.16         329.8       18.16    
  54.6000      340.5       18.45         340.5       18.45    
  54.7000      334.0       18.28         334.0       18.28    
  54.8000      343.7       18.54         343.7       18.54    
  54.9000      333.7       18.27         333.7       18.27    
  55.0000      338.3       18.39         338.3       18.39    
  55.1000      336.8       18.35         336.8       18.35    
  55.2000      335.2       18.31         335.2       18.31    
  55.3000      326.6       18.07         326.6       18.07    
  55.4000      332.5       18.23         332.5       18.23    
  55.5000      343.0       18.52         343.0       18.52    
  55.6000      344.0       18.55         344.0       18.55    
  55.7000      352.2       18.77         352.2       18.77    
  55.8000      338.2       18.39         338.2       18.39    
  55.9000      354.7       18.83         354.7       18.83    
  56.0000      381.5       19.53         381.5       19.53    
  56.1000      447.8       21.16         447.8       21.16    
  56.2000      673.2       25.95         673.2       25.95    
  56.3000     1021.4       31.96        1021.4       31.96    
  56.4000     1473.9       38.39        1473.9       38.39    
  56.5000     1837.9       42.87        1837.9       42.87    
  56.6000     1896.3       43.55        1896.3       43.55    
  56.7000     1602.2       40.03        1602.2       40.03    
  56.8000     1081.5       32.89        1081.5       32.89    
  56.9000      616.8       24.84         616.8       24.84    
  57.0000      392.1       19.80         392.1       19.80    
  57.1000      366.2       19.14         366.2       19.14    
  57.2000      367.1       19.16         367.1       19.16    
  57.3000      359.2       18.95         359.2       18.95    
  57.4000      347.2       18.63         347.2       18.63    
  57.5000      349.4       18.69         349.4       18.69    
  57.6000      354.3       18.82         354.3       18.82    
  57.7000      345.9       18.60         345.9       18.60    
  57.8000      349.6       18.70         349.6       18.70    
  57.9000      356.3       18.88         356.3       18.88    
  58.0000      353.0       18.79         353.0       18.79    
  58.1000      349.7       18.70         349.7       18.70    
  58.2000      349.0       18.68         349.0       18.68    
  58.3000      356.2       18.87         356.2       18.87    
  58.4000      350.5       18.72         350.5       18.72    
  58.5000      354.0       18.81         354.0       18.81    
  58.6000      352.9       18.79         352.9       18.79    
  58.7000      353.0       18.79         353.0       18.79    
  58.8000      355.3       18.85         355.3       18.85    
  58.9000      348.1       18.66         348.1       18.66    
  59.0000      369.6       19.22         369.6       19.22    
  59.1000      362.6       19.04         362.6       19.04    
  59.2000      363.2       19.06         363.2       19.06    
  59.3000      368.7       19.20         368.7       19.20    
  59.4000      378.0       19.44         378.0       19.44    
  59.5000      379.3       19.48         379.3       19.48    
  59.6000      384.8       19.62         384.8       19.62    
  59.7000      411.9       20.30         411.9       20.30    
  59.8000      510.9       22.60         510.9       22.60    
  59.9000      787.4       28.06         787.4       28.06    
  60.0000     1598.7       39.98        1598.7       39.98    
  60.1000     2206.3       46.97        2206.3       46.97    
  60.2000     3103.3       55.71        3103.3       55.71    
  60.3000     3685.6       60.71        3685.6       60.71    
  60.4000     3646.8       60.39        3646.8       60.39    
  60.5000     2924.5       54.08        2924.5       54.08    
  60.6000     1851.4       43.03        1851.4       43.03    
  60.7000      878.6       29.64         878.6       29.64    
  60.8000      464.4       21.55         464.4       21.55    
  60.9000      406.8       20.17         406.8       20.17    
  61.0000      404.7       20.12         404.7       20.12    
  61.1000      389.6       19.74         389.6       19.74    
  61.2000      383.4       19.58         383.4       19.58    
  61.3000      365.0       19.10         365.0       19.10    
  61.4000      377.3       19.42         377.3       19.42    
  61.5000      362.6       19.04         362.6       19.04    
  61.6000      363.5       19.07         363.5       19.07    
  61.7000      374.8       19.36         374.8       19.36    
  61.8000      377.0       19.42         377.0       19.42    
  61.9000      358.6       18.94         358.6       18.94    
  62.0000      375.4       19.38         375.4       19.38    
  62.1000      384.0       19.60         384.0       19.60    
  62.2000      371.8       19.28         371.8       19.28    
  62.3000      393.2       19.83         393.2       19.83    
  62.4000      395.6       19.89         395.6       19.89    
  62.5000      414.2       20.35         414.2       20.35    
  62.6000      426.8       20.66         426.8       20.66    
  62.7000      448.9       21.19         448.9       21.19    
  62.8000      447.0       21.14         447.0       21.14    
  62.9000      460.1       21.45         460.1       21.45    
  63.0000      447.7       21.16         447.7       21.16    
  63.1000      448.7       21.18         448.7       21.18    
  63.2000      428.7       20.71         428.7       20.71    
  63.3000      448.3       21.17         448.3       21.17    
  63.4000      564.5       23.76         564.5       23.76    
  63.5000      938.2       30.63         938.2       30.63    
  63.6000     1638.8       40.48        1638.8       40.48    
  63.7000     2656.9       51.55        2656.9       51.55    
  63.8000     3743.3       61.18        3743.3       61.18    
  63.9000     4557.6       67.51        4557.6       67.51    
  64.0000     5054.7       71.10        5054.7       71.10    
  64.1000     4473.2       66.88        4473.2       66.88    
  64.2000     3208.1       56.64        3208.1       56.64    
  64.3000     1763.1       41.99        1763.1       41.99    
  64.4000      749.9       27.38         749.9       27.38    
  64.5000      485.3       22.03         485.3       22.03    
  64.6000      444.1       21.07         444.1       21.07    
  64.7000      433.2       20.81         433.2       20.81    
  64.8000      437.1       20.91         437.1       20.91    
  64.9000      419.0       20.47         419.0       20.47    
  65.0000      408.5       20.21         408.5       20.21    
  65.1000      407.9       20.20         407.9       20.20    
  65.2000      408.0       20.20         408.0       20.20    
  65.3000      395.6       19.89         395.6       19.89    
  65.4000      410.7       20.27         410.7       20.27    
  65.5000      412.6       20.31         412.6       20.31    
  65.6000      397.5       19.94         397.5       19.94    
  65.7000      410.4       20.26         410.4       20.26    
  65.8000      425.6       20.63         425.6       20.63    
  65.9000      412.2       20.30         412.2       20.30    
  66.0000      416.4       20.41         416.4       20.41    
  66.1000      439.2       20.96         439.2       20.96    
  66.2000      467.1       21.61         467.1       21.61    
  66.3000      449.2       21.19         449.2       21.19    
  66.4000      468.6       21.65         468.6       21.65    
  66.5000      501.4       22.39         501.4       22.39    
  66.6000      506.9       22.51         506.9       22.51    
  66.7000      532.6       23.08         532.6       23.08    
  66.8000      604.2       24.58         604.2       24.58    
  66.9000      925.9       30.43         925.9       30.43    
  67.0000     1837.7       42.87        1837.7       42.87    
  67.1000     3433.4       58.60        3433.4       58.60    
  67.2000     5612.7       74.92        5612.7       74.92    
  67.3000     7987.6       89.37        7987.6       89.37    
  67.4000     9845.1       99.22        9845.1       99.22    
  67.5000    11042.3       105.08      11042.3       105.08   
  67.6000    10657.0       103.23      10657.0       103.23   
  67.7000     8290.1       91.05        8290.1       91.05    
  67.8000     4958.0       70.41        4958.0       70.41    
  67.9000     2035.4       45.12        2035.4       45.12    
  68.0000      793.3       28.17         793.3       28.17    
  68.1000      576.2       24.00         576.2       24.00    
  68.2000      532.3       23.07         532.3       23.07    
  68.3000      496.8       22.29         496.8       22.29    
  68.4000      476.3       21.82         476.3       21.82    
  68.5000      477.7       21.86         477.7       21.86    
  68.6000      468.7       21.65         468.7       21.65    
  68.7000      466.8       21.61         466.8       21.61    
  68.8000      480.5       21.92         480.5       21.92    
  68.9000      482.6       21.97         482.6       21.97    
  69.0000      491.1       22.16         491.1       22.16    
  69.1000      482.6       21.97         482.6       21.97    
  69.2000      469.2       21.66         469.2       21.66    
  69.3000      442.1       21.03         442.1       21.03    
  69.4000      444.1       21.07         444.1       21.07    
  69.5000      421.0       20.52         421.0       20.52    
  69.6000      415.4       20.38         415.4       20.38    
  69.7000      401.4       20.03         401.4       20.03    
  69.8000      384.7       19.61         384.7       19.61    
  69.9000      416.5       20.41         416.5       20.41    
  70.0000      375.8       19.39         375.8       19.39    
  70.1000      372.3       19.30         372.3       19.30    
  70.2000      372.4       19.30         372.4       19.30    
  70.3000      371.6       19.28         371.6       19.28    
  70.4000      378.5       19.46         378.5       19.46    
  70.5000      421.9       20.54         421.9       20.54    
  70.6000      456.3       21.36         456.3       21.36    
  70.7000      493.4       22.21         493.4       22.21    
  70.8000      534.9       23.13         534.9       23.13    
  70.9000      568.9       23.85         568.9       23.85    
  71.0000      586.9       24.23         586.9       24.23    
  71.1000      564.5       23.76         564.5       23.76    
  71.2000      484.9       22.02         484.9       22.02    
  71.3000      430.3       20.74         430.3       20.74    
  71.4000      390.0       19.75         390.0       19.75    
  71.5000      366.4       19.14         366.4       19.14    
  71.6000      363.1       19.06         363.1       19.06    
  71.7000      370.5       19.25         370.5       19.25    
  71.8000      371.8       19.28         371.8       19.28    
  71.9000      382.0       19.54         382.0       19.54    
  72.0000      369.5       19.22         369.5       19.22    
  72.1000      370.6       19.25         370.6       19.25    
  72.2000      370.5       19.25         370.5       19.25    
  72.3000      382.5       19.56         382.5       19.56    
  72.4000      372.8       19.31         372.8       19.31    
  72.5000      375.7       19.38         375.7       19.38    
  72.6000      390.8       19.77         390.8       19.77    
  72.7000      379.9       19.49         379.9       19.49    
  72.8000      402.5       20.06         402.5       20.06    
  72.9000      407.6       20.19         407.6       20.19    
  73.0000      404.6       20.11         404.6       20.11    
  73.1000      409.0       20.22         409.0       20.22    
  73.2000      437.9       20.93         437.9       20.93    
  73.3000      433.7       20.83         433.7       20.83    
  73.4000      466.1       21.59         466.1       21.59    
  73.5000      512.1       22.63         512.1       22.63    
  73.6000      693.1       26.33         693.1       26.33    
  73.7000     1193.9       34.55        1193.9       34.55    
  73.8000     2194.9       46.85        2194.9       46.85    
  73.9000     3521.9       59.35        3521.9       59.35    
  74.0000     5121.3       71.56        5121.3       71.56    
  74.1000     6713.3       81.93        6713.3       81.93    
  74.2000     7900.1       88.88        7900.1       88.88    
  74.3000     8892.3       94.30        8892.3       94.30    
  74.4000     9142.8       95.62        9142.8       95.62    
  74.5000     7653.4       87.48        7653.4       87.48    
  74.6000     5412.8       73.57        5412.8       73.57    
  74.7000     2815.1       53.06        2815.1       53.06    
  74.8000     1123.1       33.51        1123.1       33.51    
  74.9000      633.9       25.18         633.9       25.18    
  75.0000      527.5       22.97         527.5       22.97    
  75.1000      485.4       22.03         485.4       22.03    
  75.2000      456.1       21.36         456.1       21.36    
  75.3000      449.6       21.20         449.6       21.20    
  75.4000      445.3       21.10         445.3       21.10    
  75.5000      445.7       21.11         445.7       21.11    
  75.6000      428.8       20.71         428.8       20.71    
  75.7000      423.2       20.57         423.2       20.57    
  75.8000      424.9       20.61         424.9       20.61    
  75.9000      430.6       20.75         430.6       20.75    
  76.0000      417.5       20.43         417.5       20.43    
  76.1000      400.8       20.02         400.8       20.02    
  76.2000      396.3       19.91         396.3       19.91    
  76.3000      406.8       20.17         406.8       20.17    
  76.4000      387.4       19.68         387.4       19.68    
  76.5000      382.2       19.55         382.2       19.55    
  76.6000      376.7       19.41         376.7       19.41    
  76.7000      386.6       19.66         386.6       19.66    
  76.8000      385.5       19.63         385.5       19.63    
  76.9000      383.1       19.57         383.1       19.57    
  77.0000      379.4       19.48         379.4       19.48    
  77.1000      383.3       19.58         383.3       19.58    
  77.2000      400.4       20.01         400.4       20.01    
  77.3000      412.4       20.31         412.4       20.31    
  77.4000      468.9       21.65         468.9       21.65    
  77.5000      480.0       21.91         480.0       21.91    
  77.6000      544.0       23.32         544.0       23.32    
  77.7000      580.1       24.09         580.1       24.09    
  77.8000      620.3       24.91         620.3       24.91    
  77.9000      630.0       25.10         630.0       25.10    
  78.0000      639.8       25.29         639.8       25.29    
  78.1000      576.9       24.02         576.9       24.02    
  78.2000      522.4       22.86         522.4       22.86    
  78.3000      454.2       21.31         454.2       21.31    
  78.4000      400.1       20.00         400.1       20.00    
  78.5000      392.6       19.81         392.6       19.81    
  78.6000      398.5       19.96         398.5       19.96    
  78.7000      386.5       19.66         386.5       19.66    
  78.8000      400.9       20.02         400.9       20.02    
  78.9000      390.2       19.75         390.2       19.75    
  79.0000      405.3       20.13         405.3       20.13    
  79.1000      406.1       20.15         406.1       20.15    
  79.2000      412.3       20.31         412.3       20.31    
  79.3000      427.9       20.69         427.9       20.69    
  79.4000      440.8       21.00         440.8       21.00    
  79.5000      466.3       21.59         466.3       21.59    
  79.6000      480.8       21.93         480.8       21.93    
  79.7000      505.9       22.49         505.9       22.49    
  79.8000      530.5       23.03         530.5       23.03    
  79.9000      555.0       23.56         555.0       23.56    
  80.0000      583.5       24.16         583.5       24.16    
  80.1000      704.3       26.54         704.3       26.54    
  80.2000     1038.9       32.23        1038.9       32.23    
  80.3000     1730.0       41.59        1730.0       41.59    
  80.4000     2668.0       51.65        2668.0       51.65    
  80.5000     3759.0       61.31        3759.0       61.31    
  80.6000     4912.1       70.09        4912.1       70.09    
  80.7000     5930.5       77.01        5930.5       77.01    
  80.8000     6809.4       82.52        6809.4       82.52    
  80.9000     7452.7       86.33        7452.7       86.33    
  81.0000     7558.9       86.94        7558.9       86.94    
  81.1000     6660.2       81.61        6660.2       81.61    
  81.2000     4927.3       70.19        4927.3       70.19    
  81.3000     2923.6       54.07        2923.6       54.07    
  81.4000     1354.5       36.80        1354.5       36.80    
  81.5000      740.5       27.21         740.5       27.21    
  81.6000      551.3       23.48         551.3       23.48    
  81.7000      494.2       22.23         494.2       22.23    
  81.8000      491.1       22.16         491.1       22.16    
  81.9000      461.8       21.49         461.8       21.49    
  82.0000      453.0       21.28         453.0       21.28    
  82.1000      446.1       21.12         446.1       21.12    
  82.2000      436.5       20.89         436.5       20.89    
  82.3000      444.2       21.08         444.2       21.08    
  82.4000      446.7       21.14         446.7       21.14    
  82.5000      451.7       21.25         451.7       21.25    
  82.6000      441.0       21.00         441.0       21.00    
  82.7000      447.6       21.16         447.6       21.16    
  82.8000      440.7       20.99         440.7       20.99    
  82.9000      453.3       21.29         453.3       21.29    
  83.0000      466.3       21.59         466.3       21.59    
  83.1000      472.3       21.73         472.3       21.73    
  83.2000      495.1       22.25         495.1       22.25    
  83.3000      615.3       24.81         615.3       24.81    
  83.4000      855.0       29.24         855.0       29.24    
  83.5000     1354.9       36.81        1354.9       36.81    
  83.6000     1996.9       44.69        1996.9       44.69    
  83.7000     2679.9       51.77        2679.9       51.77    
  83.8000     3453.3       58.76        3453.3       58.76    
  83.9000     4176.5       64.63        4176.5       64.63    
  84.0000     4746.0       68.89        4746.0       68.89    
  84.1000     5318.0       72.92        5318.0       72.92    
  84.2000     5644.3       75.13        5644.3       75.13    
  84.3000     5289.7       72.73        5289.7       72.73    
  84.4000     4459.9       66.78        4459.9       66.78    
  84.5000     3120.8       55.86        3120.8       55.86    
  84.6000     1731.9       41.62        1731.9       41.62    
  84.7000      891.2       29.85         891.2       29.85    
  84.8000      600.5       24.51         600.5       24.51    
  84.9000      492.1       22.18         492.1       22.18    
  85.0000      458.7       21.42         458.7       21.42    
  85.1000      438.1       20.93         438.1       20.93    
  85.2000      447.7       21.16         447.7       21.16    
  85.3000      422.6       20.56         422.6       20.56    
  85.4000      425.5       20.63         425.5       20.63    
  85.5000      419.8       20.49         419.8       20.49    
  85.6000      411.7       20.29         411.7       20.29    
  85.7000      415.9       20.39         415.9       20.39    
  85.8000      405.1       20.13         405.1       20.13    
  85.9000      403.1       20.08         403.1       20.08    
  86.0000      396.9       19.92         396.9       19.92    
  86.1000      400.9       20.02         400.9       20.02    
  86.2000      390.5       19.76         390.5       19.76    
  86.3000      398.9       19.97         398.9       19.97    
  86.4000      402.2       20.05         402.2       20.05    
  86.5000      414.2       20.35         414.2       20.35    
  86.6000      455.2       21.34         455.2       21.34    
  86.7000      516.5       22.73         516.5       22.73    
  86.8000      593.0       24.35         593.0       24.35    
  86.9000      691.4       26.29         691.4       26.29    
  87.0000      766.5       27.69         766.5       27.69    
  87.1000      870.7       29.51         870.7       29.51    
  87.2000      932.9       30.54         932.9       30.54    
  87.3000     1014.2       31.85        1014.2       31.85    
  87.4000     1074.6       32.78        1074.6       32.78    
  87.5000     1050.1       32.41        1050.1       32.41    
  87.6000      988.0       31.43         988.0       31.43    
  87.7000      838.5       28.96         838.5       28.96    
  87.8000      651.6       25.53         651.6       25.53    
  87.9000      509.7       22.58         509.7       22.58    
  88.0000      431.9       20.78         431.9       20.78    
  88.1000      402.5       20.06         402.5       20.06    
  88.2000      391.8       19.79         391.8       19.79    
  88.3000      380.9       19.52         380.9       19.52    
  88.4000      390.6       19.76         390.6       19.76    
  88.5000      389.3       19.73         389.3       19.73    
  88.6000      392.4       19.81         392.4       19.81    
  88.7000      374.9       19.36         374.9       19.36    
  88.8000      387.7       19.69         387.7       19.69    
  88.9000      393.5       19.84         393.5       19.84    
  89.0000      388.1       19.70         388.1       19.70    
  89.1000      395.4       19.88         395.4       19.88    
  89.2000      399.2       19.98         399.2       19.98    
  89.3000      395.8       19.89         395.8       19.89    
  89.4000      400.7       20.02         400.7       20.02    
  89.5000      421.9       20.54         421.9       20.54    
  89.6000      433.8       20.83         433.8       20.83    
  89.7000      470.1       21.68         470.1       21.68    
  89.8000      575.4       23.99         575.4       23.99    
  89.9000      725.1       26.93         725.1       26.93    
  90.0000      883.7       29.73         883.7       29.73    
  90.1000     1030.5       32.10        1030.5       32.10    
  90.2000     1230.7       35.08        1230.7       35.08    
  90.3000     1393.3       37.33        1393.3       37.33    
  90.4000     1551.4       39.39        1551.4       39.39    
  90.5000     1674.0       40.91        1674.0       40.91    
  90.6000     1780.8       42.20        1780.8       42.20    
  90.7000     2014.8       44.89        2014.8       44.89    
  90.8000     1704.9       41.29        1704.9       41.29    
  90.9000     1419.7       37.68        1419.7       37.68    
  91.0000     1056.9       32.51        1056.9       32.51    
  91.1000      729.3       27.01         729.3       27.01    
  91.2000      529.2       23.00         529.2       23.00    
  91.3000      468.3       21.64         468.3       21.64    
  91.4000      430.5       20.75         430.5       20.75    
  91.5000      430.5       20.75         430.5       20.75    
  91.6000      421.1       20.52         421.1       20.52    
  91.7000      416.5       20.41         416.5       20.41    
  91.8000      414.2       20.35         414.2       20.35    
  91.9000      418.0       20.45         418.0       20.45    
  92.0000      420.3       20.50         420.3       20.50    
  92.1000      434.2       20.84         434.2       20.84    
  92.2000      420.9       20.52         420.9       20.52    
  92.3000      440.1       20.98         440.1       20.98    
  92.4000      441.1       21.00         441.1       21.00    
  92.5000      444.9       21.09         444.9       21.09    
  92.6000      469.8       21.67         469.8       21.67    
  92.7000      507.2       22.52         507.2       22.52    
  92.8000      611.0       24.72         611.0       24.72    
  92.9000      828.2       28.78         828.2       28.78    
  93.0000     1188.9       34.48        1188.9       34.48    
  93.1000     1662.9       40.78        1662.9       40.78    
  93.2000     2078.7       45.59        2078.7       45.59    
  93.3000     2711.8       52.07        2711.8       52.07    
  93.4000     3334.8       57.75        3334.8       57.75    
  93.5000     3928.8       62.68        3928.8       62.68    
  93.6000     4452.1       66.72        4452.1       66.72    
  93.7000     4973.0       70.52        4973.0       70.52    
  93.8000     5364.5       73.24        5364.5       73.24    
  93.9000     5364.3       73.24        5364.3       73.24    