#wavelength 1.4
#field 0. 0.  1.0
#   ttheta     IntUP    sIntUP   IntDOWN  sIntDOWN
 5.50    2097174.00    1448.16    2094826.00    1447.35
 6.06    1181741.00    1087.08    1180069.00    1086.31
 6.48    876895.00    936.43    875980.00    935.94
 6.83    791406.00    889.61    789871.00    888.75
 7.13    711426.00    843.46    712159.00    843.90
 7.39    664782.00    815.34    665260.00    815.63
 7.63    634493.00    796.55    633986.00    796.23
 7.85    601882.00    775.81    601558.00    775.60
 8.05    609273.00    780.56    610043.00    781.05
 8.24    585683.00    765.30    587194.00    766.29
 8.43    585639.00    765.27    585811.00    765.38
 8.61    578102.00    760.33    576818.00    759.49
 8.77    596821.00    772.54    596254.00    772.17
 8.94    587115.00    766.23    586497.00    765.83
 9.08    599154.00    774.05    598574.00    773.68
 9.24    632491.00    795.29    630254.00    793.89
 9.39    625399.00    790.82    621993.00    788.67
 9.53    664664.00    815.27    660550.00    812.74
 9.67    660222.00    812.54    653344.00    808.30
 9.80    663246.00    814.40    655715.00    809.76
 9.93    669175.00    818.03    665125.00    815.55
 10.07   660803.00    812.90    656056.00    809.97
 10.19   642796.00    801.75    635500.00    797.18
 10.32   633365.00    795.84    630324.00    793.93
 10.44   607559.00    779.46    604735.00    777.65
 10.55   592234.00    769.57    589446.00    767.75
 10.68   577657.00    760.04    575729.00    758.77
 10.79   564660.00    751.44    562812.00    750.21
 10.90   555782.00    745.51    552557.00    743.34
 11.01   551689.00    742.76    553372.00    743.89
 11.12   556160.00    745.76    555488.00    745.31
 11.23   566322.00    752.54    564518.00    751.34
 11.34   548248.00    740.44    546427.00    739.21
 11.44   564780.00    751.52    563165.00    750.44
 11.54   559811.00    748.21    558786.00    747.52
 11.64   556192.00    745.78    553099.00    743.71
 11.75   555062.00    745.02    553471.00    743.96
 11.85   555684.00    745.44    555018.00    745.00
 11.94   556648.00    746.09    558131.00    747.08
 12.04   554682.00    744.77    554117.00    744.39
 12.14   557996.00    746.99    557132.00    746.41
 12.23   558135.00    747.08    558867.00    747.57
 12.32   555650.00    745.42    555380.00    745.24
 12.41   557811.00    746.87    557255.00    746.50
 12.50   557369.00    746.57    557353.00    746.56
 12.60   555859.00    745.56    554337.00    744.54
 12.69   557828.00    746.88    558404.00    747.26
 12.78   567940.00    753.62    569136.00    754.41
 12.86   558039.00    747.02    559119.00    747.74
 12.95   559500.00    748.00    558812.00    747.54
 13.04   557260.00    746.50    556053.00    745.69
 13.12   566967.00    752.97    568001.00    753.66
 13.20   557537.00    746.68    557260.00    746.50
 13.29   555418.00    745.26    555791.00    745.51
 13.37   563480.00    750.65    563311.00    750.54
 13.46   563211.00    750.47    564441.00    751.29
 13.54   557970.00    746.97    558716.00    747.47
 13.62   559700.00    748.13    560808.00    748.87
 13.70   555705.00    745.46    556731.00    746.14
 13.78   556555.00    746.03    557138.00    746.42
 13.86   561301.00    749.20    562076.00    749.72
 13.94   572178.00    756.42    573728.00    757.45
 14.01   554657.00    744.75    556010.00    745.66
 14.09   561589.00    749.39    562062.00    749.71
 14.17   572789.00    756.83    575580.00    758.67
 14.24   566414.00    752.60    566116.00    752.41
 14.32   571242.00    755.81    573255.00    757.14
 14.39   565900.00    752.26    567534.00    753.35
 14.47   585269.00    765.03    585347.00    765.08
 14.54   561115.00    749.08    561062.00    749.04
 14.62   587223.00    766.30    587119.00    766.24
 14.69   582235.00    763.04    582430.00    763.17
 14.76   584345.00    764.42    584152.00    764.30
 14.83   586313.00    765.71    585073.00    764.90
 14.90   593119.00    770.14    589974.00    768.10
 14.98   605848.00    778.36    603823.00    777.06
 15.05   590285.00    768.30    587205.00    766.29
 15.12   594310.00    770.92    589301.00    767.66
 15.18   602744.00    776.37    600782.00    775.10
 15.26   605268.00    777.99    603729.00    777.00
 15.32   600884.00    775.17    599876.00    774.52
 15.39   602835.00    776.42    600301.00    774.79
 15.46   624979.00    790.56    622304.00    788.86
 15.53   615840.00    784.75    613721.00    783.40
 15.59   618472.00    786.43    616703.00    785.30
 15.66   614788.00    784.08    611990.00    782.30
 15.73   637994.00    798.75    636575.00    797.86
 15.79   629233.00    793.24    627123.00    791.91
 15.86   626812.00    791.71    622378.00    788.91
 15.93   640365.00    800.23    638958.00    799.35
 15.99   635867.00    797.41    631736.00    794.82
 16.06   646475.00    804.04    645109.00    803.19
 16.12   626413.00    791.46    625223.00    790.71
 16.18   643574.00    802.23    643826.00    802.39
 16.25   634198.00    796.37    632497.00    795.30
 16.31   623136.00    789.39    622496.00    788.98
 16.37   637450.00    798.40    637472.00    798.42
 16.44   641252.00    800.78    640767.00    800.48
 16.50   622926.00    789.26    622628.00    789.07
 16.56   610177.00    781.14    609239.00    780.54
 16.62   624832.00    790.46    624229.00    790.08
 16.68   621610.00    788.42    620327.00    787.61
 16.75   612974.00    782.93    612203.00    782.43
 16.81   595891.00    771.94    597492.00    772.98
 16.87   610632.00    781.43    610150.00    781.12
 16.93   602947.00    776.50    600705.00    775.05
 16.99   599266.00    774.12    601177.00    775.36
 17.05   587082.00    766.21    588335.00    767.03
 17.11   601338.00    775.46    601868.00    775.80
 17.17   602528.00    776.23    604323.00    777.38
 17.23   603615.00    776.93    605626.00    778.22
 17.29   589158.00    767.57    590519.00    768.45
 17.35   596270.00    772.19    595526.00    771.70
 17.40   595672.00    771.80    598240.00    773.46
 17.46   599726.00    774.42    601338.00    775.46
 17.52   604197.00    777.30    604358.00    777.40
 17.58   605962.00    778.44    607344.00    779.32
 17.63   597986.00    773.30    599722.00    774.42
 17.69   597682.00    773.10    602619.00    776.29
 17.75   609391.00    780.63    610530.00    781.36
 17.80   611196.00    781.79    613350.00    783.17
 17.86   606367.00    778.70    608169.00    779.85
 17.92   621247.00    788.19    622919.00    789.25
 17.97   615388.00    784.47    617072.00    785.54
 18.03   620082.00    787.45    620224.00    787.54
 18.08   624460.00    790.23    625757.00    791.05
 18.14   618075.00    786.18    620267.00    787.57
 18.20   642891.00    801.80    645504.00    803.43
 18.25   623127.00    789.38    625863.00    791.12
 18.31   643343.00    802.09    644940.00    803.08
 18.36   642982.00    801.86    644717.00    802.94
 18.41   641091.00    800.68    644705.00    802.94
 18.47   665470.00    815.76    666782.00    816.57
 18.52   647841.00    804.89    651647.00    807.25
 18.57   666269.00    816.25    671098.00    819.21
 18.63   665249.00    815.63    668822.00    817.82
 18.68   673073.00    820.41    675288.00    821.76
 18.74   677831.00    823.30    682591.00    826.19
 18.79   674288.00    821.15    678124.00    823.48
 18.84   684558.00    827.38    690291.00    830.84
 18.90   707392.00    841.07    712134.00    843.88
 18.95   700769.00    837.12    706216.00    840.37
 19.00   701169.00    837.36    704322.00    839.24
 19.05   703522.00    838.76    709980.00    842.60
 19.10   726732.00    852.49    732952.00    856.13
 19.15   723128.00    850.37    729318.00    854.00
 19.20   741809.00    861.28    747319.00    864.48
 19.26   735685.00    857.72    741905.00    861.34
 19.31   732872.00    856.08    739410.00    859.89
 19.36   749634.00    865.81    757653.00    870.43
 19.41   756231.00    869.62    761569.00    872.68
 19.46   751349.00    866.80    759010.00    871.21
 19.51   754183.00    868.44    761982.00    872.92
 19.56   751484.00    866.88    759990.00    871.77
 19.61   764231.00    874.20    772964.00    879.18
 19.66   767596.00    876.13    776441.00    881.16
 19.71   760279.00    871.94    769841.00    877.41
 19.76   754410.00    868.57    761501.00    872.64
 19.81   762000.00    872.93    772011.00    878.64
 19.86   759803.00    871.67    770190.00    877.60
 19.91   760295.00    871.95    768167.00    876.45
 19.96   755414.00    869.15    767323.00    875.97
 20.01   742871.00    861.90    753445.00    868.01
 20.05   738513.00    859.37    744057.00    862.59
 20.10   734998.00    857.32    742542.00    861.71
 20.15   713532.00    844.71    722017.00    849.72
 20.20   727135.00    852.72    735230.00    857.46
 20.25   712319.00    843.99    719763.00    848.39
 20.30   700237.00    836.80    707336.00    841.03
 20.35   705908.00    840.18    711936.00    843.76
 20.39   690228.00    830.80    698222.00    835.60
 20.44   677886.00    823.34    685864.00    828.17
 20.49   671350.00    819.36    677847.00    823.31
 20.54   670303.00    818.72    677233.00    822.94
 20.58   666665.00    816.50    674852.00    821.49
 20.63   645775.00    803.60    649618.00    805.99
 20.68   658393.00    811.41    666069.00    816.13
 20.73   659705.00    812.22    663623.00    814.63
 20.77   631138.00    794.44    636161.00    797.60
 20.82   651670.00    807.26    655748.00    809.78
 20.87   640039.00    800.02    644892.00    803.05
 20.91   629497.00    793.41    632528.00    795.32
 20.96   645312.00    803.31    649451.00    805.89
 21.00   629831.00    793.62    632559.00    795.34
 21.05   625421.00    790.84    630224.00    793.87
 21.09   634956.00    796.84    639314.00    799.57
 21.14   619792.00    787.27    622813.00    789.19
 21.19   639021.00    799.39    641176.00    800.73
 21.23   628570.00    792.82    630288.00    793.91
 21.28   621659.00    788.45    626205.00    791.33
 21.32   630205.00    793.85    631925.00    794.94
 21.37   627107.00    791.90    630855.00    794.26
 21.41   635449.00    797.15    639009.00    799.38
 21.46   633580.00    795.98    635868.00    797.41
 21.50   636887.00    798.05    639344.00    799.59
 21.55   630966.00    794.33    632698.00    795.42
 21.59   621660.00    788.45    624623.00    790.33
 21.64   649460.00    805.89    652798.00    807.96
 21.68   631064.00    794.40    632525.00    795.31
 21.73   652088.00    807.52    654216.00    808.84
 21.77   626292.00    791.39    629760.00    793.57
 21.81   644954.00    803.09    646840.00    804.26
 21.86   631642.00    794.76    633232.00    795.76
 21.90   637624.00    798.51    639693.00    799.81
 21.95   656117.00    810.01    658467.00    811.46
 21.99   635095.00    796.93    637929.00    798.70
 22.03   636085.00    797.55    636696.00    797.93
 22.08   654334.00    808.91    657579.00    810.91
 22.12   638657.00    799.16    640811.00    800.51
 22.16   644551.00    802.84    646632.00    804.13
 22.21   652909.00    808.03    654306.00    808.89
 22.25   638556.00    799.10    641041.00    800.65
 22.29   639135.00    799.46    638789.00    799.24
 22.33   651310.00    807.04    654148.00    808.79
 22.38   641635.00    801.02    641988.00    801.24
 22.42   636591.00    797.87    639158.00    799.47
 22.46   645411.00    803.37    648400.00    805.23
 22.51   650335.00    806.43    652754.00    807.93
 22.55   636711.00    797.94    638564.00    799.10
 22.59   639347.00    799.59    639381.00    799.61
 22.63   629682.00    793.53    628940.00    793.06
 22.67   642164.00    801.35    643846.00    802.40
 22.72   641935.00    801.21    642463.00    801.54
 22.76   627326.00    792.04    625193.00    790.69
 22.80   633649.00    796.02    635182.00    796.98
 22.84   632462.00    795.27    635532.00    797.20
 22.88   630935.00    794.31    632369.00    795.22
 22.92   626071.00    791.25    626210.00    791.33
 22.97   648340.00    805.20    649571.00    805.96
 23.01   621824.00    788.56    622814.00    789.19
 23.05   625785.00    791.07    629252.00    793.25
 23.09   625727.00    791.03    627265.00    792.00
 23.13   633231.00    795.76    634523.00    796.57
 23.17   619532.00    787.10    621924.00    788.62
 23.21   628281.00    792.64    630533.00    794.06
 23.25   627200.00    791.96    628099.00    792.53
 23.29   630893.00    794.29    631908.00    794.93
 23.33   621146.00    788.13    621604.00    788.42
 23.37   611534.00    782.01    614865.00    784.13
 23.41   633467.00    795.91    637429.00    798.39
 23.46   632951.00    795.58    635446.00    797.15
 23.49   625471.00    790.87    625510.00    790.89
 23.53   628270.00    792.63    627380.00    792.07
 23.57   617576.00    785.86    622453.00    788.96
 23.62   631425.00    794.62    631777.00    794.84
 23.65   623552.00    789.65    625530.00    790.90
 23.70   632315.00    795.18    633973.00    796.22
 23.74   634126.00    796.32    636047.00    797.53
 23.77   620162.00    787.50    622861.00    789.22
 23.81   631836.00    794.88    632642.00    795.39
 23.85   631982.00    794.97    633625.00    796.01
 23.89   632425.00    795.25    634913.00    796.81
 23.93   633790.00    796.11    637070.00    798.17
 23.97   643444.00    802.15    645575.00    803.48
 24.01   639846.00    799.90    641863.00    801.16
 24.05   646118.00    803.81    648780.00    805.47
 24.09   648275.00    805.16    648079.00    805.03
 24.13   656693.00    810.37    660693.00    812.83
 24.17   657131.00    810.64    657955.00    811.14
 24.20   654216.00    808.84    657313.00    810.75
 24.24   666225.00    816.23    667022.00    816.71
 24.28   668470.00    817.60    670759.00    819.00
 24.32   656547.00    810.28    659087.00    811.84
 24.36   671544.00    819.48    674619.00    821.35
 24.40   680587.00    824.98    683404.00    826.68
 24.44   683328.00    826.64    685519.00    827.96
 24.47   699488.00    836.35    701452.00    837.53
 24.51   672724.00    820.20    675650.00    821.98
 24.55   686764.00    828.71    689603.00    830.42
 24.59   707502.00    841.13    710716.00    843.04
 24.63   710545.00    842.94    714725.00    845.41
 24.66   702361.00    838.07    705397.00    839.88
 24.70   714711.00    845.41    716554.00    846.50
 24.74   697733.00    835.30    698803.00    835.94
 24.78   727898.00    853.17    731420.00    855.23
 24.81   720322.00    848.72    720958.00    849.09
 24.85   717151.00    846.85    720174.00    848.63
 24.89   713755.00    844.84    717943.00    847.32
 24.93   716172.00    846.27    717909.00    847.30
 24.97   740327.00    860.42    742027.00    861.41
 25.01   717958.00    847.32    719223.00    848.07
 25.04   714621.00    845.35    716075.00    846.21
 25.08   722963.00    850.27    727187.00    852.75
 25.12   731034.00    855.01    734322.00    856.93
 25.15   705090.00    839.70    706245.00    840.38
 25.19   721711.00    849.54    723146.00    850.38
 25.23   728547.00    853.55    730100.00    854.46
 25.26   703214.00    838.58    702769.00    838.31
 25.30   709859.00    842.53    713062.00    844.43
 25.34   714611.00    845.35    714667.00    845.38
 25.37   717221.00    846.89    718001.00    847.35
 25.41   690875.00    831.19    692345.00    832.07
 25.45   707419.00    841.08    708800.00    841.90
 25.48   699378.00    836.29    698924.00    836.02
 25.52   688985.00    830.05    689907.00    830.61
 25.56   689403.00    830.30    691394.00    831.50
 25.59   671288.00    819.32    671536.00    819.47
 25.63   695746.00    834.11    696541.00    834.59
 25.66   680427.00    824.88    682712.00    826.26
 25.70   663734.00    814.70    664660.00    815.27
 25.74   679650.00    824.41    682010.00    825.84
 25.77   681692.00    825.65    682210.00    825.96
 25.81   649070.00    805.65    650094.00    806.28
 25.85   671411.00    819.40    673695.00    820.79
 25.88   644980.00    803.11    648984.00    805.60
 25.92   667752.00    817.16    670660.00    818.94
 25.95   645802.00    803.62    646729.00    804.19
 25.99   652029.00    807.48    654756.00    809.17
 26.02   658757.00    811.64    660767.00    812.88
 26.06   639208.00    799.50    641501.00    800.94
 26.09   650749.00    806.69    652548.00    807.80
 26.13   632464.00    795.28    634961.00    796.84
 26.17   655672.00    809.74    657396.00    810.80
 26.20   631354.00    794.58    633180.00    795.73
 26.24   644626.00    802.89    646549.00    804.08
 26.27   628240.00    792.62    630672.00    794.15
 26.31   648472.00    805.28    649891.00    806.16
 26.34   620184.00    787.52    622643.00    789.08
 26.38   649920.00    806.18    650610.00    806.60
 26.41   620029.00    787.42    623672.00    789.73
 26.45   645564.00    803.47    651344.00    807.06
 26.48   622640.00    789.08    626588.00    791.57
 26.52   644156.00    802.59    645871.00    803.66
 26.55   620115.00    787.47    622475.00    788.97
 26.59   636258.00    797.66    638078.00    798.80
 26.62   620081.00    787.45    621708.00    788.48
 26.66   641896.00    801.18    644652.00    802.90
 26.69   620283.00    787.58    623203.00    789.43
 26.73   645809.00    803.62    647515.00    804.68
 26.76   614059.00    783.62    618547.00    786.48
 26.80   643878.00    802.42    647509.00    804.68
 26.83   621202.00    788.16    622502.00    788.99
 26.87   641001.00    800.63    644134.00    802.58
 26.90   619658.00    787.18    623288.00    789.49
 26.94   644673.00    802.92    648459.00    805.27
 26.97   623946.00    789.90    625754.00    791.05
 27.00   645531.00    803.45    647402.00    804.61
 27.04   619713.00    787.22    620754.00    787.88
 27.07   641456.00    800.91    645056.00    803.15
 27.11   625788.00    791.07    630197.00    793.85
 27.14   647973.00    804.97    651583.00    807.21
 27.18   632731.00    795.44    636084.00    797.55
 27.21   647797.00    804.86    650011.00    806.23
 27.25   633720.00    796.07    636621.00    797.89
 27.28   642276.00    801.42    644042.00    802.52
 27.32   641570.00    800.98    643636.00    802.27
 27.35   655480.00    809.62    656867.00    810.47
 27.39   638448.00    799.03    641720.00    801.07
 27.42   661278.00    813.19    664921.00    815.43
 27.46   639830.00    799.89    645088.00    803.17
 27.49   654226.00    808.84    657536.00    810.89
 27.53   650084.00    806.28    654016.00    808.71
 27.56   656944.00    810.52    661920.00    813.58
 27.60   670534.00    818.86    673083.00    820.42
 27.63   644381.00    802.73    648967.00    805.58
 27.67   673937.00    820.94    676665.00    822.60
 27.70   668894.00    817.86    673199.00    820.49
 27.74   672271.00    819.92    675872.00    822.11
 27.77   655740.00    809.78    659298.00    811.97
 27.81   681555.00    825.56    686587.00    828.61
 27.84   662299.00    813.82    666492.00    816.39
 27.88   687134.00    828.94    689843.00    830.57
 27.91   667547.00    817.04    672159.00    819.85
 27.95   685873.00    828.17    690125.00    830.74
 27.98   674590.00    821.33    678554.00    823.74
 28.02   688388.00    829.69    694010.00    833.07
 28.05   666460.00    816.37    670187.00    818.65
 28.09   693558.00    832.80    698922.00    836.02
 28.12   668823.00    817.82    676201.00    822.31
 28.16   696198.00    834.38    701576.00    837.60
 28.19   670348.00    818.75    673333.00    820.57
 28.22   702232.00    837.99    707487.00    841.12
 28.26   659841.00    812.31    666500.00    816.39
 28.30   697578.00    835.21    703490.00    838.74
 28.33   671891.00    819.69    678562.00    823.75
 28.36   686895.00    828.79    689924.00    830.62
 28.40   675993.00    822.19    680891.00    825.16
 28.43   697678.00    835.27    701437.00    837.52
 28.47   671900.00    819.70    678291.00    823.58
 28.51   694083.00    833.12    697437.00    835.13
 28.54   673621.00    820.74    679669.00    824.42
 28.58   687542.00    829.18    694258.00    833.22
 28.61   662840.00    814.15    667436.00    816.97
 28.65   686560.00    828.59    692246.00    832.01
 28.68   671348.00    819.36    675538.00    821.91
 28.72   681128.00    825.30    686131.00    828.33
 28.75   674752.00    821.43    677058.00    822.84
 28.79   667517.00    817.02    672803.00    820.25
 28.82   665314.00    815.67    669264.00    818.09
 28.86   669326.00    818.12    673870.00    820.90
 28.90   676332.00    822.39    680468.00    824.90
 28.93   665425.00    815.74    670900.00    819.08
 28.97   667760.00    817.17    668764.00    817.78
 29.00   660715.00    812.84    665060.00    815.51
 29.04   659838.00    812.30    664573.00    815.21
 29.07   670400.00    818.78    672650.00    820.15
 29.11   642763.00    801.73    647039.00    804.39
 29.15   661622.00    813.40    662011.00    813.64
 29.19   669703.00    818.35    673873.00    820.90
 29.22   644399.00    802.74    646145.00    803.83
 29.26   658745.00    811.63    661620.00    813.40
 29.30   662439.00    813.90    664585.00    815.22
 29.33   645344.00    803.33    649272.00    805.77
 29.37   660210.00    812.53    662664.00    814.04
 29.40   651345.00    807.06    653386.00    808.32
 29.44   635670.00    797.29    638777.00    799.24
 29.48   662177.00    813.74    664121.00    814.94
 29.51   653537.00    808.42    655910.00    809.88
 29.55   629851.00    793.63    631331.00    794.56
 29.59   662681.00    814.05    664569.00    815.21
 29.62   649262.00    805.77    651595.00    807.21
 29.66   639929.00    799.96    643529.00    802.20
 29.70   649274.00    805.78    649308.00    805.80
 29.74   656301.00    810.12    662737.00    814.09
 29.77   653665.00    808.50    654333.00    808.91
 29.81   634855.00    796.78    635821.00    797.38
 29.85   651697.00    807.28    652008.00    807.47
 29.89   649941.00    806.19    653092.00    808.14
 29.92   645794.00    803.61    647804.00    804.86
 29.96   642796.00    801.75    643782.00    802.36
 30.00   648032.00    805.00    648942.00    805.57
 30.04   654731.00    809.15    654696.00    809.13
 30.07   658071.00    811.22    659035.00    811.81
 30.11   630854.00    794.26    631736.00    794.82
 30.15   652220.00    807.60    652089.00    807.52
 30.19   653637.00    808.48    654652.00    809.11
 30.23   652303.00    807.65    652723.00    807.91
 30.26   647433.00    804.63    647855.00    804.89
 30.30   646101.00    803.80    646372.00    803.97
 30.34   642307.00    801.44    643990.00    802.49
 30.38   652324.00    807.67    653246.00    808.24
 30.42   654461.00    808.99    655604.00    809.69
 30.46   654159.00    808.80    653908.00    808.65
 30.50   645306.00    803.31    646085.00    803.79
 30.53   651080.00    806.90    651759.00    807.32
 30.57   651810.00    807.35    652091.00    807.52
 30.61   634788.00    796.74    637925.00    798.70
 30.65   645297.00    803.30    645312.00    803.31
 30.69   656237.00    810.08    656517.00    810.26
 30.73   650747.00    806.69    651890.00    807.40
 30.77   652181.00    807.58    652280.00    807.64
 30.81   654925.00    809.27    654518.00    809.02
 30.85   651622.00    807.23    652913.00    808.03
 30.89   646875.00    804.29    648847.00    805.51
 30.93   653667.00    808.50    655011.00    809.33
 30.97   651879.00    807.39    652016.00    807.48
 31.00   649332.00    805.81    650949.00    806.81
 31.05   648560.00    805.33    651046.00    806.87
 31.09   647894.00    804.92    649799.00    806.10
 31.12   656177.00    810.05    656878.00    810.48
 31.16   648895.00    805.54    650307.00    806.42
 31.20   651659.00    807.25    654219.00    808.84
 31.25   652617.00    807.85    652785.00    807.95
 31.29   650786.00    806.71    652404.00    807.72
 31.33   656843.00    810.46    658569.00    811.52
 31.37   651200.00    806.97    654830.00    809.22
 31.41   659843.00    812.31    663196.00    814.37
 31.45   648780.00    805.47    650976.00    806.83
 31.49   656222.00    810.08    658412.00    811.43
 31.53   656306.00    810.13    659442.00    812.06
 31.57   655348.00    809.54    654690.00    809.13
 31.61   661088.00    813.07    660376.00    812.64
 31.65   665510.00    815.79    667367.00    816.93
 31.69   652911.00    808.03    653988.00    808.70
 31.73   664597.00    815.23    666137.00    816.17
 31.77   656405.00    810.19    657880.00    811.10
 31.82   665134.00    815.56    665639.00    815.87
 31.86   659003.00    811.79    661221.00    813.15
 31.90   656958.00    810.53    657160.00    810.65
 31.94   654497.00    809.01    655493.00    809.63
 31.98   659891.00    812.34    662611.00    814.01
 32.02   675011.00    821.59    675959.00    822.17
 32.07   665472.00    815.76    666369.00    816.31
 32.11   662978.00    814.23    665106.00    815.54
 32.15   669034.00    817.94    670514.00    818.85
 32.19   667954.00    817.28    670198.00    818.66
 32.23   666246.00    816.24    668633.00    817.70
 32.28   663253.00    814.40    664414.00    815.12
 32.32   656428.00    810.20    657836.00    811.07
 32.36   671130.00    819.23    673697.00    820.79
 32.41   670019.00    818.55    672391.00    819.99
 32.45   659900.00    812.34    661480.00    813.31
 32.49   660452.00    812.68    664637.00    815.25
 32.54   678742.00    823.86    681731.00    825.67
 32.58   667988.00    817.31    670954.00    819.12
 32.62   655751.00    809.78    659248.00    811.94
 32.67   680155.00    824.72    682956.00    826.41
 32.71   658550.00    811.51    659919.00    812.35
 32.75   662149.00    813.73    665101.00    815.54
 32.80   682150.00    825.92    684954.00    827.62
 32.84   668923.00    817.88    671044.00    819.17
 32.88   671146.00    819.24    674114.00    821.04
 32.93   668577.00    817.67    670000.00    818.54
 32.97   661254.00    813.18    663599.00    814.62
 33.01   681823.00    825.73    683050.00    826.47
 33.06   662572.00    813.99    665076.00    815.52
 33.10   678367.00    823.63    680094.00    824.68
 33.15   669215.00    818.06    673230.00    820.51
 33.19   680177.00    824.73    681663.00    825.63
 33.24   665295.00    815.66    667871.00    817.23
 33.29   682666.00    826.24    686941.00    828.82
 33.33   673645.00    820.76    676814.00    822.69
 33.37   664876.00    815.40    668287.00    817.49
 33.42   687919.00    829.41    692936.00    832.43
 33.47   680623.00    825.00    683765.00    826.90
 33.51   667921.00    817.26    668158.00    817.41
 33.56   692784.00    832.34    694436.00    833.33
 33.60   678926.00    823.97    682257.00    825.99
 33.65   689477.00    830.35    693860.00    832.98
 33.69   690212.00    830.79    692782.00    832.34
 33.74   676833.00    822.70    681026.00    825.24
 33.79   695679.00    834.07    697516.00    835.17
 33.83   683797.00    826.92    688275.00    829.62
 33.88   701902.00    837.80    706967.00    840.81
 33.92   684641.00    827.43    686652.00    828.64
 33.97   685336.00    827.85    688602.00    829.82
 34.02   700701.00    837.08    704851.00    839.55
 34.07   699396.00    836.30    700185.00    836.77
 34.11   681649.00    825.62    685717.00    828.08
 34.16   699332.00    836.26    702813.00    838.34
 34.21   702747.00    838.30    705966.00    840.22
 34.25   693726.00    832.90    697909.00    835.41
 34.30   688294.00    829.63    691497.00    831.56
 34.35   704136.00    839.13    707431.00    841.09
 34.40   707014.00    840.84    708748.00    841.87
 34.45   703937.00    839.01    705972.00    840.22
 34.49   697490.00    835.16    700443.00    836.92
 34.54   699565.00    836.40    701348.00    837.47
 34.59   701520.00    837.57    702209.00    837.98
 34.64   705988.00    840.23    708776.00    841.89
 34.69   709788.00    842.49    710278.00    842.78
 34.74   707293.00    841.01    707202.00    840.95
 34.79   705708.00    840.06    706824.00    840.73
 34.84   706127.00    840.31    710176.00    842.72
 34.89   706322.00    840.43    708319.00    841.62
 34.94   711134.00    843.29    713515.00    844.70
 34.99   704550.00    839.37    705874.00    840.16
 35.03   700358.00    836.87    704343.00    839.25
 35.08   716381.00    846.39    717675.00    847.16
 35.14   714609.00    845.35    715740.00    846.01
 35.19   719659.00    848.33    721982.00    849.70
 35.24   716173.00    846.27    717824.00    847.24
 35.29   715691.00    845.99    717980.00    847.34
 35.34   719765.00    848.39    722183.00    849.81
 35.39   723804.00    850.77    726488.00    852.34
 35.44   730745.00    854.84    734715.00    857.16
 35.49   731163.00    855.08    734010.00    856.74
 35.54   738601.00    859.42    740975.00    860.80
 35.59   734275.00    856.90    735606.00    857.67
 35.64   752551.00    867.50    756013.00    869.49
 35.70   752559.00    867.50    754885.00    868.84
 35.75   749274.00    865.61    751480.00    866.88
 35.80   755443.00    869.16    758680.00    871.02
 35.85   769719.00    877.34    771843.00    878.55
 35.91   766203.00    875.33    768194.00    876.47
 35.96   762842.00    873.41    765061.00    874.68
 36.01   771000.00    878.07    773604.00    879.55
 36.07   782800.00    884.76    783145.00    884.95
 36.12   764364.00    874.28    766449.00    875.47
 36.17   788017.00    887.70    789806.00    888.71
 36.23   773904.00    879.72    775186.00    880.45
 36.28   773186.00    879.31    773386.00    879.42
 36.33   789662.00    888.63    790505.00    889.10
 36.39   767130.00    875.86    767750.00    876.21
 36.44   782016.00    884.32    785703.00    886.40
 36.50   766394.00    875.44    769896.00    877.44
 36.56   775646.00    880.71    780155.00    883.26
 36.61   757822.00    870.53    758061.00    870.67
 36.67   769486.00    877.20    770899.00    878.01
 36.72   753397.00    867.98    752743.00    867.61
 36.78   770531.00    877.80    772324.00    878.82
 36.83   749978.00    866.01    751646.00    866.98
 36.89   756149.00    869.57    756134.00    869.56
 36.95   753173.00    867.86    754069.00    868.37
 37.01   750913.00    866.55    752929.00    867.71
 37.06   729150.00    853.90    730955.00    854.96
 37.12   749367.00    865.66    750763.00    866.47
 37.18   746251.00    863.86    748736.00    865.30
 37.23   726950.00    852.61    729612.00    854.17
 37.30   744708.00    862.96    746632.00    864.08
 37.35   721521.00    849.42    721466.00    849.39
 37.41   728747.00    853.67    729694.00    854.22
 37.47   731458.00    855.25    733939.00    856.70
 37.52   732688.00    855.97    735508.00    857.62
 37.58   724652.00    851.26    725411.00    851.71
 37.65   721145.00    849.20    720715.00    848.95
 37.71   722972.00    850.28    723966.00    850.86
 37.77   726597.00    852.41    728876.00    853.74
 37.83   726562.00    852.39    727856.00    853.14
 37.89   720793.00    849.00    722445.00    849.97
 37.95   718096.00    847.41    717566.00    847.09
 38.01   725338.00    851.67    727959.00    853.21
 38.07   723646.00    850.67    726125.00    852.13
 38.13   727566.00    852.97    728243.00    853.37
 38.20   725622.00    851.83    726517.00    852.36
 38.26   723739.00    850.73    725764.00    851.92
 38.32   730600.00    854.75    730177.00    854.50
 38.38   721143.00    849.20    722947.00    850.26
 38.45   721281.00    849.28    722985.00    850.29
 38.51   723590.00    850.64    726491.00    852.34
 38.57   736640.00    858.28    737858.00    858.99
 38.64   715653.00    845.96    718076.00    847.39
 38.71   729655.00    854.20    730116.00    854.47
 38.77   725482.00    851.75    728674.00    853.62
 38.84   730569.00    854.73    732568.00    855.90
 38.90   723802.00    850.77    726593.00    852.40
 38.97   730588.00    854.74    731608.00    855.34
 39.03   725421.00    851.72    726981.00    852.63
 39.10   730339.00    854.60    732963.00    856.13
 39.17   736673.00    858.30    739527.00    859.96
 39.24   728035.00    853.25    732440.00    855.83
 39.30   736337.00    858.10    740695.00    860.64
 39.37   733051.00    856.18    737985.00    859.06
 39.44   737481.00    858.77    740904.00    860.76
 39.51   743935.00    862.52    745638.00    863.50
 39.58   744164.00    862.65    748825.00    865.35
 39.65   747988.00    864.86    753216.00    867.88
 39.72   743837.00    862.46    746966.00    864.27
 39.79   748881.00    865.38    751651.00    866.98
 39.86   767538.00    876.09    770170.00    877.59
 39.94   758878.00    871.14    763623.00    873.86
 40.01   755319.00    869.09    757561.00    870.38
 40.08   755170.00    869.01    758929.00    871.17
 40.16   770634.00    877.86    773307.00    879.38
 40.23   758248.00    870.77    761834.00    872.83
 40.30   761200.00    872.47    762162.00    873.02
 40.38   768189.00    876.46    770480.00    877.77
 40.46   760254.00    871.93    764802.00    874.53
 40.53   750751.00    866.46    755059.00    868.94
 40.61   766344.00    875.41    771182.00    878.17
 40.68   753463.00    868.02    754295.00    868.50
 40.76   753846.00    868.24    755543.00    869.22
 40.84   754179.00    868.43    756845.00    869.97
 40.92   749016.00    865.46    747513.00    864.59
 41.00   754293.00    868.50    756757.00    869.92
 41.07   748784.00    865.32    753541.00    868.07
 41.16   741429.00    861.06    745104.00    863.19
 41.24   740752.00    860.67    744643.00    862.93
 41.32   735493.00    857.61    734897.00    857.26
 41.41   747376.00    864.51    749110.00    865.51
 41.49   731726.00    855.41    733643.00    856.53
 41.57   730709.00    854.82    730787.00    854.86
 41.66   732819.00    856.05    734939.00    857.29
 41.74   734311.00    856.92    735088.00    857.37
 41.83   725189.00    851.58    726629.00    852.43
 41.92   725703.00    851.88    725975.00    852.04
 42.01   720018.00    848.54    723136.00    850.37
 42.09   714613.00    845.35    716325.00    846.36
 42.19   717931.00    847.31    718497.00    847.64
 42.27   714390.00    845.22    714455.00    845.25
 42.37   708263.00    841.58    709871.00    842.54
 42.46   709967.00    842.60    711641.00    843.59
 42.56   709294.00    842.20    712070.00    843.84
 42.65   710029.00    842.63    711906.00    843.75
 42.75   704235.00    839.19    705656.00    840.03
 42.84   702124.00    837.93    702121.00    837.93
 42.95   701914.00    837.80    703148.00    838.54
 43.05   701109.00    837.32    702961.00    838.43
 43.15   693120.00    832.54    693180.00    832.57
 43.25   692664.00    832.26    694960.00    833.64
 43.35   691155.00    831.36    693118.00    832.54
 43.46   696897.00    834.80    698188.00    835.58
 43.56   690393.00    830.90    691137.00    831.35
 43.67   688654.00    829.85    690890.00    831.20
 43.78   687879.00    829.38    687925.00    829.41
 43.89   688292.00    829.63    691333.00    831.46
 44.01   687868.00    829.38    689151.00    830.15
 44.12   686151.00    828.34    688205.00    829.58
 44.24   688591.00    829.81    690881.00    831.19
 44.36   688921.00    830.01    692090.00    831.92
 44.48   682195.00    825.95    684120.00    827.12
 44.60   688569.00    829.80    691261.00    831.42
 44.73   685451.00    827.92    687365.00    829.07
 44.86   686286.00    828.42    688174.00    829.56
 44.99   683450.00    826.71    687504.00    829.16
 45.13   695456.00    833.94    697413.00    835.11
 45.27   682757.00    826.29    684390.00    827.28
 45.41   688170.00    829.56    690812.00    831.15
 45.55   684807.00    827.53    685824.00    828.14
 45.71   684920.00    827.60    687477.00    829.14
 45.85   679816.00    824.51    682444.00    826.10
 46.01   681363.00    825.45    684492.00    827.34
 46.18   685290.00    827.82    687032.00    828.87
 46.34   681720.00    825.66    684052.00    827.07
 46.53   674179.00    821.08    679558.00    824.35
 46.71   676734.00    822.64    677848.00    823.32
 46.90   676456.00    822.47    678537.00    823.73
 47.10   673359.00    820.58    674433.00    821.24
 47.31   661959.00    813.61    666680.00    816.50
 47.54   660166.00    812.51    663078.00    814.30
 47.78   658733.00    811.62    661380.00    813.25
 48.05   653378.00    808.32    657003.00    810.56
 48.33   648655.00    805.39    652442.00    807.74
 48.67   656155.00    810.03    658733.00    811.62
 49.06   647300.00    804.55    647968.00    804.96
 49.55   653276.00    808.25    654538.00    809.04
 50.48   654343.00    808.91    653631.00    808.47        